time (s)	det(V)
6496.700551	-0.294675	
6496.702049	-0.388281	
6496.703784	-0.316597	
6496.705286	-0.424657	
6496.707020	-0.331184	
6496.708539	-0.486842	
6496.710264	-0.344208	
6496.711800	-0.487451	
6496.713495	-0.357380	
6496.715052	-0.523045	
6496.716739	-0.370359	
6496.718303	-0.568045	
6496.719965	-0.386876	
6496.721547	-0.607196	
6496.723199	-0.438523	
6496.724789	-0.602906	
6496.726434	-0.453149	
6496.728058	-0.631628	
6496.729677	-0.477376	
6496.731331	-0.625368	
6496.732934	-0.514948	
6496.734586	-0.626838	
6496.736184	-0.519806	
6496.737863	-0.652072	
6496.739422	-0.551021	
6496.741112	-0.656994	
6496.742657	-0.607438	
6496.744353	-0.682937	
6496.745899	-0.624119	
6496.747599	-0.653607	
6496.749124	-0.633594	
6496.750857	-0.655657	
6496.752361	-0.615881	
6496.754140	-0.663988	
6496.755616	-0.663323	
6496.757388	-0.647818	
6496.758869	-0.696126	
6496.760644	-0.635995	
6496.762125	-0.690309	
6496.763871	-0.615410	
6496.765374	-0.709302	
6496.767135	-0.611358	
6496.768643	-0.721617	
6496.770388	-0.649586	
6496.771900	-0.740449	
6496.773612	-0.625843	
6496.775146	-0.777884	
6496.776842	-0.642066	
6496.778391	-0.831723	
6496.780076	-0.645631	
6496.781643	-0.825660	
6496.783298	-0.639435	
6496.784882	-0.857613	
6496.786544	-0.673704	
6496.788126	-0.861383	
6496.789770	-0.720799	
6496.791382	-0.894142	
6496.792989	-0.773780	
6496.794651	-0.957100	
6496.796242	-0.815243	
6496.797910	-0.990370	
6496.799495	-0.875406	
6496.801158	-0.989424	
6496.802743	-0.918586	
6496.804456	-1.062002	
6496.805999	-0.998270	
6496.807715	-1.125802	
6496.809252	-1.090264	
6496.810960	-1.178634	
6496.812494	-1.142798	
6496.814198	-1.200209	
6496.815690	-1.267474	
6496.817461	-1.281179	
6496.818941	-1.358655	
6496.820717	-1.356589	
6496.822200	-1.463162	
6496.823974	-1.408570	
6496.825453	-1.504714	
6496.827203	-1.478973	
6496.828694	-1.509323	
6496.830452	-1.509310	
6496.831965	-1.509439	
6496.833724	-1.509335	
6496.835243	-1.509407	
6496.836944	-1.509439	
6496.838470	-1.509484	
6496.840176	-1.509347	
6496.841715	-1.509464	
6496.843404	-1.509359	
6496.844966	-1.509528	
6496.846632	-1.509403	
6496.848222	-1.509544	
6496.849868	-1.509379	
6496.851464	-1.509637	
6496.853105	-1.509411	
6496.854702	-1.509532	
6496.856334	-1.509480	
6496.857981	-1.509597	
6496.859574	-1.509439	
6496.861262	-1.509540	
6496.862856	-1.509403	
6496.864496	-1.509516	
6496.866078	-1.509427	
6496.867743	-1.509597	
6496.869302	-1.509508	
6496.871018	-1.509621	
6496.872553	-1.509488	
6496.874264	-1.509528	
6496.875785	-1.509460	
6496.877527	-1.509564	
6496.879012	-1.509516	
6496.880755	-1.509572	
6496.882237	-1.509391	
6496.884001	-1.509508	
6496.885480	-1.509508	
6496.887275	-1.509560	
6496.888751	-1.509516	
6496.890496	-1.509508	
6496.891995	-1.509536	
6496.893728	-1.509532	
6496.895242	-1.509496	
6496.896941	-1.509484	
6496.898475	-1.509524	
6496.900193	-1.509419	
6496.901728	-1.509512	
6496.903416	-1.509468	
6496.904974	-1.509508	
6496.906653	-1.509464	
6496.908219	-1.509568	
6496.909867	-1.509439	
6496.911462	-1.509609	
6496.913084	-1.509459	
6496.914702	-1.509613	
6496.916313	-1.509508	
6496.917953	-1.509572	
6496.919561	-1.509407	
6496.921199	-1.509556	
6496.922782	-1.509367	
6496.924465	-1.509560	
6496.926022	-1.509488	
6496.927725	-1.509508	
6496.929262	-1.509447	
6496.930952	-1.509552	
6496.932502	-1.509532	
6496.934201	-1.509597	
6496.935706	-1.509496	
6496.937494	-1.509480	
6496.938974	-1.509472	
6496.940748	-1.509512	
6496.942235	-1.509528	
6496.944004	-1.509500	
6496.945480	-1.509544	
6496.947231	-1.509528	
6496.948720	-1.509484	
6496.950489	-1.509520	
6496.951986	-1.509556	
6496.953723	-1.509512	
6496.955238	-1.509593	
6496.956947	-1.509496	
6496.958475	-1.509609	
6496.959994	-1.509588	
6496.961586	-1.509609	
6496.963062	-1.509524	
6496.964693	-1.509560	
6496.966208	-1.509597	
6496.967784	-1.509508	
6496.969258	-1.509568	
6496.970826	-1.509564	
6496.972307	-1.509665	
6496.973936	-1.509536	
6496.975446	-1.509588	
6496.976938	-1.509625	
6496.978523	-1.509697	
6496.980053	-1.509625	
6496.981683	-1.509572	
6496.983174	-1.509681	
6496.984824	-1.509641	
6496.986326	-1.509516	
6496.987991	-1.509685	
6496.989482	-1.509548	
6496.991119	-1.509629	
6496.992590	-1.509637	
6496.994215	-1.509588	
6496.995696	-1.509532	
6496.997331	-1.509625	
6496.998821	-1.509580	
6497.000423	-1.509452	
6497.001957	-1.509617	
6497.003505	-1.509524	
6497.005104	-1.509649	
6497.006587	-1.509625	
6497.008246	-1.509601	
6497.009730	-1.509544	
6497.011369	-1.509605	
6497.012886	-1.509532	
6497.014527	-1.509528	
6497.016005	-1.509548	
6497.017638	-1.509560	
6497.019122	-1.509588	
6497.020756	-1.509532	
6497.022252	-1.509617	
6497.023868	-1.509496	
6497.025372	-1.509568	
6497.026941	-1.509528	
6497.028468	-1.509572	
6497.029983	-1.509560	
6497.031633	-1.509580	
6497.033115	-1.509500	
6497.034757	-1.509536	
6497.036278	-1.509439	
6497.037921	-1.509596	
6497.039411	-1.509536	
6497.041055	-1.509476	
6497.042547	-1.509637	
6497.044178	-1.509516	
6497.045652	-1.509516	
6497.047307	-1.509488	
6497.048787	-1.509480	
6497.050394	-1.509516	
6497.051897	-1.509536	
6497.053539	-1.509371	
6497.055083	-1.509492	
6497.056695	-1.509435	
6497.058275	-1.509435	
6497.059834	-1.509359	
6497.061438	-1.509387	
6497.062974	-1.508009	
6497.064655	-1.508714	
6497.066150	-1.457950	
6497.067868	-1.441832	
6497.069339	-1.326481	
6497.071051	-1.259530	
6497.072529	-1.220806	
6497.074249	-1.097588	
6497.075742	-1.087364	
6497.077470	-0.979051	
6497.078954	-0.967795	
6497.080660	-0.801478	
6497.082145	-0.809543	
6497.083844	-0.615120	
6497.085334	-0.652080	
6497.086986	-0.474226	
6497.088511	-0.522980	
6497.090142	-0.299151	
6497.091708	-0.380176	
6497.093305	-0.157491	
6497.094894	-0.198402	
6497.096462	0.010836	
6497.098083	-0.000169	
6497.099627	0.155195	
6497.101293	0.191877	
6497.102791	0.332885	
6497.104485	0.356128	
6497.105968	0.482198	
6497.107699	0.532049	
6497.109166	0.617953	
6497.110881	0.773160	
6497.112376	0.801153	
6497.114090	0.980921	
6497.115568	0.984248	
6497.117282	1.215333	
6497.118757	1.157043	
6497.120441	1.405763	
6497.121947	1.363329	
6497.123601	1.623075	
6497.125136	1.581120	
6497.126776	1.717781	
6497.128330	1.735590	
6497.130010	1.743824	
6497.131583	1.743615	
6497.133259	1.744033	
6497.134839	1.743759	
6497.136511	1.744070	
6497.138112	1.743864	
6497.139738	1.744009	
6497.141363	1.743828	
6497.142989	1.744195	
6497.144599	1.743872	
6497.146208	1.744138	
6497.147847	1.743909	
6497.149439	1.743993	
6497.151108	1.743888	
6497.152683	1.744042	
6497.154376	1.743840	
6497.155923	1.744009	
6497.157618	1.743885	
6497.159175	1.743977	
6497.160885	1.744017	
6497.162397	1.743953	
6497.164154	1.744045	
6497.165631	1.743965	
6497.167413	1.744110	
6497.168896	1.744046	
6497.170680	1.744046	
6497.172165	1.744030	
6497.173942	1.744025	
6497.175434	1.743937	
6497.177204	1.744122	
6497.178693	1.744009	
6497.180452	1.744086	
6497.181957	1.743985	
6497.183685	1.744146	
6497.185203	1.744090	
6497.186937	1.744082	
6497.188474	1.744025	
6497.190170	1.744070	
6497.191721	1.743909	
6497.193416	1.744154	
6497.194971	1.743989	
6497.196651	1.744005	
6497.198217	1.743945	
6497.199876	1.744126	
6497.201457	1.743937	
6497.203077	1.744074	
6497.204708	1.743868	
6497.206312	1.744154	
6497.207945	1.743896	
6497.209548	1.744138	
6497.211203	1.743949	
6497.212804	1.743977	
6497.214478	1.743880	
6497.216038	1.744106	
6497.217725	1.744009	
6497.219279	1.744050	
6497.220991	1.743925	
6497.222547	1.744094	
6497.224244	1.743921	
6497.225789	1.743989	
6497.227505	1.744045	
6497.229008	1.744130	
6497.230765	1.744033	
6497.232241	1.744082	
6497.234035	1.743965	
6497.235521	1.743969	
6497.237295	1.744062	
6497.238772	1.744049	
6497.240543	1.744090	
6497.242043	1.743969	
6497.243808	1.744094	
6497.245301	1.743969	
6497.247039	1.743997	
6497.248552	1.743941	
6497.250272	1.744045	
6497.251797	1.744009	
6497.253496	1.744033	
6497.255041	1.743953	
6497.256718	1.744021	
6497.258286	1.743957	
6497.259966	1.744074	
6497.261537	1.743937	
6497.263175	1.744150	
6497.264755	1.743957	
6497.266384	1.744118	
6497.268007	1.743989	
6497.269620	1.744078	
6497.271263	1.743933	
6497.272864	1.744082	
6497.274512	1.743957	
6497.276112	1.744118	
6497.277787	1.743925	
6497.279382	1.744062	
6497.281081	1.744070	
6497.282631	1.744074	
6497.284335	1.743965	
6497.285870	1.744134	
6497.287582	1.743961	
6497.289114	1.743985	
6497.290838	1.743949	
6497.292324	1.743904	
6497.294094	1.744037	
6497.295575	1.743977	
6497.297364	1.744102	
6497.298844	1.744078	
6497.300612	1.744005	
6497.302092	1.744025	
6497.303861	1.744042	
6497.305350	1.743892	
6497.307096	1.744009	
6497.308603	1.743997	
6497.310363	1.744082	
6497.311876	1.743901	
6497.313592	1.744070	
6497.315125	1.743921	
6497.316831	1.744030	
6497.318374	1.743905	
6497.320088	1.744058	
6497.321652	1.743860	
6497.323348	1.743965	
6497.324915	1.743772	
6497.326593	1.744045	
6497.328171	1.743864	
6497.329829	1.743925	
6497.331415	1.743667	
6497.333032	1.743868	
6497.334650	1.743582	
6497.336258	1.744046	
6497.337912	1.743155	
6497.339508	1.744142	
6497.341157	1.743316	
6497.342750	1.743715	
6497.344439	1.733580	
6497.346008	1.735973	
6497.347702	1.739465	
6497.349239	1.702381	
6497.350938	1.673409	
6497.352492	1.633738	
6497.354194	1.609032	
6497.355708	1.579593	
6497.357459	1.516885	
6497.358954	1.493577	
6497.360716	1.512554	
6497.362199	1.452133	
6497.363988	1.485915	
6497.365465	1.435875	
6497.367224	1.458510	
6497.368704	1.355357	
6497.370472	1.423717	
6497.371969	1.305200	
6497.373733	1.404361	
6497.375236	1.271314	
6497.376956	1.382516	
6497.378474	1.237065	
6497.380186	1.377005	
6497.381732	1.220759	
6497.383426	1.356082	
6497.384976	1.183980	
6497.386671	1.345165	
6497.388243	1.159943	
6497.389921	1.321152	
6497.391489	1.087695	
6497.393143	1.297796	
6497.394715	1.088058	
6497.396362	1.287375	
6497.397981	1.099329	
6497.399602	1.243438	
6497.401264	1.119305	
6497.402861	1.216239	
6497.404525	1.021844	
6497.406110	1.163649	
6497.407762	1.022275	
6497.409336	1.116284	
6497.411038	1.018453	
6497.412592	1.087667	
6497.414291	1.018924	
6497.415836	1.040745	
6497.417537	0.982959	
6497.419074	1.018561	
6497.420803	0.964948	
6497.422301	0.945636	
6497.424089	0.899351	
6497.425568	0.859809	
6497.427359	0.888056	
6497.428839	0.863797	
6497.430606	0.854343	
6497.432084	0.765772	
6497.433853	0.828590	
6497.435342	0.777011	
6497.437125	0.788560	
6497.438622	0.655521	
6497.440378	0.750976	
6497.441890	0.584816	
6497.443602	0.709371	
6497.445134	0.540742	
6497.446822	0.694797	
6497.448358	0.523968	
6497.450061	0.652439	
6497.451625	0.472305	
6497.453312	0.623141	
6497.454881	0.405833	
6497.456537	0.564340	
6497.458109	0.348829	
6497.459756	0.516197	
6497.461354	0.349969	
6497.462972	0.513386	
6497.464607	0.288054	
6497.466214	0.455329	
6497.467881	0.286777	
6497.469483	0.401785	
6497.471139	0.273769	
6497.472736	0.369776	
6497.474432	0.243980	
6497.475997	0.324469	
6497.477687	0.217304	
6497.479243	0.271420	
6497.480945	0.205968	
6497.482497	0.249937	
6497.484187	0.214239	
6497.485710	0.222082	
6497.487447	0.182882	
6497.488929	0.188719	
6497.490710	0.189134	
6497.492196	0.143751	
6497.493981	0.163163	
6497.495461	0.114618	
6497.497223	0.200575	
6497.498703	0.102658	
6497.500458	0.186117	
6497.501962	0.121031	
6497.503711	0.197328	
6497.505235	0.073936	
6497.506723	0.064877	
6497.508315	0.039913	
6497.509816	0.035022	
6497.511385	0.103053	
6497.512909	0.062927	
6497.514482	0.104366	
6497.515984	0.033431	
6497.517542	0.105933	
6497.519049	0.063938	
6497.520603	0.074464	
6497.522139	0.111814	
6497.523628	0.071092	
6497.525221	0.078234	
6497.526764	0.128544	
6497.528358	0.088603	
6497.529848	0.161125	
6497.531508	0.113245	
6497.532999	0.113675	
6497.534618	0.118481	
6497.536145	0.113905	
6497.537780	0.159610	
6497.539271	0.105462	
6497.540917	0.142692	
6497.542401	0.043961	
6497.544047	0.168626	
6497.545526	0.094460	
6497.547150	0.164142	
6497.548640	0.082222	
6497.550231	0.180248	
6497.551771	0.117261	
6497.553302	0.187752	
6497.554940	0.125531	
6497.556430	0.127851	
6497.558079	0.128745	
6497.559575	0.159925	
6497.561226	0.117962	
6497.562708	0.074222	
6497.564350	0.139022	
6497.565821	0.062742	
6497.567476	0.141785	
6497.568958	0.024331	
6497.570601	0.165274	
6497.572087	0.047809	
6497.573682	0.155695	
6497.575215	0.015026	
6497.576768	0.092474	
6497.578364	0.027208	
6497.579847	0.065114	
6497.581499	0.033194	
6497.582993	0.018478	
6497.584641	0.012976	
6497.586166	0.062580	
6497.587808	0.036650	
6497.589287	-0.018904	
6497.590919	0.035800	
6497.592398	-0.076908	
6497.594039	0.054129	
6497.595536	-0.067188	
6497.597173	0.038906	
6497.598689	-0.088844	
6497.600268	-0.005071	
6497.601809	-0.075309	
6497.603351	-0.030655	
6497.604924	-0.150332	
6497.606521	-0.015452	
6497.608110	-0.102847	
6497.609666	-0.039179	
6497.611287	-0.146755	
6497.612795	-0.047594	
6497.614494	-0.124640	
6497.615969	-0.096961	
6497.617719	-0.145543	
6497.619190	-0.134227	
6497.620902	-0.130292	
6497.622384	-0.180891	
6497.624081	-0.112494	
6497.625559	-0.184738	
6497.627260	-0.109655	
6497.628738	-0.250565	
6497.630402	-0.096277	
6497.631912	-0.247173	
6497.633573	-0.108595	
6497.635107	-0.261023	
6497.636745	-0.115455	
6497.638302	-0.247697	
6497.639903	-0.141784	
6497.641491	-0.258727	
6497.643061	-0.153072	
6497.644668	-0.274280	
6497.646209	-0.156625	
6497.647877	-0.250541	
6497.649352	-0.187031	
6497.651078	-0.211720	
6497.652550	-0.173266	
6497.654255	-0.193693	
6497.655732	-0.196308	
6497.657430	-0.182430	
6497.658908	-0.281015	
6497.660620	-0.166389	
6497.662117	-0.266799	
6497.663832	-0.139299	
6497.665315	-0.255206	
6497.666983	-0.100248	
6497.668489	-0.229388	
6497.670120	-0.091612	
6497.671654	-0.231817	
6497.673275	-0.100547	
6497.674850	-0.262364	
6497.676520	-0.053741	
6497.678106	-0.280274	
6497.679739	-0.045177	
6497.681361	-0.223886	
6497.683012	-0.040823	
6497.684613	-0.210000	
6497.686227	-0.062302	
6497.687863	-0.189145	
6497.689468	-0.065009	
6497.691129	-0.238742	
6497.692702	-0.075664	
6497.694389	-0.207011	
6497.695943	-0.094375	
6497.697643	-0.178374	
6497.699195	-0.108788	
6497.700895	-0.171014	
6497.702444	-0.095495	
6497.704151	-0.194600	
6497.705648	-0.157773	
6497.707416	-0.153418	
6497.708897	-0.181282	
6497.710688	-0.202141	
6497.712173	-0.201073	
6497.713922	-0.184352	
6497.715407	-0.215434	
6497.717184	-0.141599	
6497.718672	-0.258388	
6497.720451	-0.173681	
6497.721948	-0.275553	
6497.723689	-0.187675	
6497.725189	-0.321206	
6497.726906	-0.205146	
6497.728440	-0.364377	
6497.730155	-0.217581	
6497.731703	-0.383190	
6497.733411	-0.249385	
6497.734958	-0.422393	
6497.736634	-0.282598	
6497.738201	-0.491261	
6497.739863	-0.326072	
6497.741450	-0.537164	
6497.743095	-0.346447	
6497.744697	-0.563380	
6497.746321	-0.368559	
6497.747936	-0.590100	
6497.749546	-0.439377	
6497.751196	-0.624526	
6497.752799	-0.489203	
6497.754465	-0.636498	
6497.756050	-0.522984	
6497.757739	-0.682437	
6497.759298	-0.614004	
6497.760993	-0.716972	
6497.762549	-0.628732	
6497.764236	-0.718378	
6497.765788	-0.694313	
6497.767483	-0.726946	
6497.769021	-0.733307	
6497.770760	-0.794243	
6497.772238	-0.786304	
6497.774002	-0.806498	
6497.775485	-0.843228	
6497.777256	-0.849451	
6497.778740	-0.925550	
6497.780523	-0.852396	
6497.782015	-0.939960	
6497.783802	-0.867788	
6497.785298	-0.942723	
6497.787051	-0.907169	
6497.788560	-1.021517	
6497.790312	-0.934151	
6497.791829	-1.053744	
6497.793539	-0.952709	
6497.795069	-1.080802	
6497.796768	-0.934505	
6497.798329	-1.105471	
6497.800019	-0.934965	
6497.801564	-1.101620	
6497.803254	-0.961632	
6497.804834	-1.198542	
6497.806489	-0.970982	
6497.808068	-1.187065	
6497.809696	-0.990950	
6497.811320	-1.184145	
6497.812939	-1.017654	
6497.814563	-1.185691	
6497.816184	-1.057833	
6497.817837	-1.214224	
6497.819427	-1.063214	
6497.821110	-1.193043	
6497.822681	-1.125786	
6497.824359	-1.230651	
6497.825910	-1.143293	
6497.827608	-1.248013	
6497.829168	-1.194646	
6497.830863	-1.249605	
6497.832419	-1.225221	
6497.834145	-1.256936	
6497.835639	-1.243155	
6497.837395	-1.299185	
6497.838876	-1.323540	
6497.840655	-1.305735	
6497.842136	-1.398491	
6497.843902	-1.384388	
6497.845386	-1.455875	
6497.847172	-1.394838	
6497.848660	-1.496347	
6497.850419	-1.427270	
6497.851920	-1.505999	
6497.853648	-1.472435	
6497.855162	-1.509093	
6497.856881	-1.508747	
6497.858409	-1.509399	
6497.860139	-1.509278	
6497.861691	-1.509407	
6497.863392	-1.509427	
6497.864945	-1.509476	
6497.866636	-1.509363	
6497.868198	-1.509544	
6497.869866	-1.509415	
6497.871452	-1.509588	
6497.873125	-1.509286	
6497.874727	-1.509508	
6497.876352	-1.509383	
6497.877961	-1.509649	
6497.879590	-1.509391	
6497.881221	-1.509564	
6497.882843	-1.509468	
6497.884507	-1.509560	
6497.886087	-1.509375	
6497.887772	-1.509588	
6497.889352	-1.509460	
6497.891039	-1.509512	
6497.892611	-1.509520	
6497.894279	-1.509528	
6497.895838	-1.509439	
6497.897538	-1.509597	
6497.899085	-1.509500	
6497.900797	-1.509419	
6497.902300	-1.509617	
6497.904051	-1.509580	
6497.905527	-1.509464	
6497.907298	-1.509637	
6497.908777	-1.509520	
6497.910551	-1.509528	
6497.912040	-1.509520	
6497.913815	-1.509496	
6497.915296	-1.509601	
6497.917036	-1.509528	
6497.918544	-1.509540	
6497.920270	-1.509504	
6497.921784	-1.509568	
6497.923501	-1.509552	
6497.925037	-1.509556	
6497.926727	-1.509488	
6497.928277	-1.509588	
6497.929952	-1.509496	
6497.931512	-1.509617	
6497.933176	-1.509528	
6497.934747	-1.509645	
6497.936407	-1.509383	
6497.938005	-1.509669	
6497.939640	-1.509455	
6497.941272	-1.509609	
6497.942903	-1.509516	
6497.944534	-1.509560	
6497.946125	-1.509520	
6497.947770	-1.509609	
6497.949361	-1.509484	
6497.951052	-1.509621	
6497.952609	-1.509492	
6497.954302	-1.509621	
6497.955846	-1.509468	
6497.957533	-1.509596	
6497.959077	-1.509544	
6497.960797	-1.509552	
6497.962311	-1.509516	
6497.964066	-1.509532	
6497.965539	-1.509435	
6497.967314	-1.509500	
6497.968798	-1.509532	
6497.970588	-1.509576	
6497.972069	-1.509520	
6497.973851	-1.509516	
6497.975330	-1.509435	
6497.977090	-1.509528	
6497.978590	-1.509653	
6497.980326	-1.509552	
6497.981838	-1.509520	
6497.983556	-1.509516	
6497.985084	-1.509500	
6497.986788	-1.509512	
6497.988327	-1.509641	
6497.990024	-1.509536	
6497.991574	-1.509584	
6497.993260	-1.509500	
6497.994823	-1.509572	
6497.996500	-1.509500	
6497.998075	-1.509588	
6497.999717	-1.509496	
6498.001310	-1.509584	
6498.002939	-1.509431	
6498.004573	-1.509633	
6498.006188	-1.509528	
6498.007846	-1.509597	
6498.009447	-1.509500	
6498.011092	-1.509637	
6498.012693	-1.509464	
6498.014351	-1.509540	
6498.015931	-1.509387	
6498.017630	-1.509496	
6498.019182	-1.509508	
6498.020895	-1.509508	
6498.022445	-1.509439	
6498.024145	-1.509609	
6498.025661	-1.509464	
6498.027392	-1.509609	
6498.028896	-1.509528	
6498.030671	-1.509613	
6498.032148	-1.509460	
6498.033903	-1.509629	
6498.035385	-1.509508	
6498.037161	-1.509484	
6498.038644	-1.509520	
6498.040395	-1.509532	
6498.041902	-1.509528	
6498.043660	-1.509585	
6498.045166	-1.509580	
6498.046913	-1.509492	
6498.048438	-1.509609	
6498.050159	-1.509456	
6498.051691	-1.509488	
6498.053396	-1.509500	
6498.054983	-1.509536	
6498.056477	-1.509641	
6498.058065	-1.509564	
6498.059562	-1.509625	
6498.061146	-1.509548	
6498.062639	-1.509572	
6498.064223	-1.509633	
6498.065717	-1.509560	
6498.067274	-1.509548	
6498.068785	-1.509584	
6498.070390	-1.509588	
6498.071903	-1.509548	
6498.073465	-1.509528	
6498.075014	-1.509576	
6498.076528	-1.509468	
6498.078157	-1.509472	
6498.079647	-1.509496	
6498.081279	-1.509456	
6498.082803	-1.509351	
6498.084433	-1.509395	
6498.085913	-1.508956	
6498.087551	-1.503232	
6498.089030	-1.508565	
6498.090658	-1.356818	
6498.092163	-1.384984	
6498.093772	-1.231751	
6498.095284	-1.180269	
6498.096852	-1.021751	
6498.098394	-1.021783	
6498.099922	-0.856235	
6498.101540	-0.872191	
6498.103033	-0.732876	
6498.104667	-0.685072	
6498.106198	-0.648213	
6498.107838	-0.531291	
6498.109334	-0.496442	
6498.110965	-0.371399	
6498.112457	-0.340437	
6498.114081	-0.207124	
6498.115581	-0.252543	
6498.117224	-0.040774	
6498.118714	-0.036541	
6498.120307	0.064780	
6498.121825	0.047104	
6498.123382	0.195442	
6498.124972	0.252806	
6498.126465	0.304417	
6498.128128	0.356052	
6498.129625	0.473554	
6498.131252	0.495693	
6498.132787	0.581557	
6498.134432	0.698656	
6498.135911	0.738065	
6498.137561	0.866863	
6498.139032	0.871962	
6498.140681	1.038747	
6498.142159	0.963848	
6498.143796	1.175251	
6498.145272	1.136083	
6498.146943	1.369569	
6498.148449	1.318123	
6498.150096	1.520744	
6498.151646	1.484142	
6498.153242	1.671709	
6498.154830	1.672881	
6498.156396	1.723997	
6498.157999	1.743292	
6498.159550	1.743957	
6498.161202	1.743473	
6498.162701	1.743933	
6498.164401	1.743751	
6498.165881	1.743876	
6498.167609	1.743812	
6498.169078	1.743868	
6498.170791	1.743989	
6498.172275	1.743864	
6498.173982	1.743989	
6498.175460	1.744041	
6498.177164	1.743965	
6498.178643	1.743840	
6498.180306	1.744058	
6498.181817	1.743961	
6498.183462	1.744025	
6498.185001	1.743764	
6498.186610	1.744118	
6498.188179	1.743965	
6498.189782	1.743925	
6498.191363	1.743901	
6498.192926	1.744066	
6498.194546	1.743888	
6498.196055	1.744045	
6498.197746	1.743953	
6498.199233	1.744005	
6498.200948	1.743921	
6498.202420	1.744005	
6498.204136	1.743989	
6498.205623	1.744098	
6498.207319	1.744001	
6498.208802	1.744082	
6498.210497	1.744017	
6498.211977	1.743905	
6498.213727	1.744102	
6498.215228	1.744054	
6498.216992	1.744122	
6498.218503	1.743925	
6498.220218	1.744070	
6498.221740	1.743933	
6498.223476	1.744130	
6498.225008	1.743965	
6498.226707	1.744001	
6498.228246	1.744013	
6498.229934	1.744094	
6498.231509	1.743953	
6498.233189	1.744118	
6498.234754	1.743989	
6498.236401	1.744033	
6498.237979	1.744005	
6498.239621	1.744174	
6498.241227	1.743945	
6498.242844	1.744182	
6498.244516	1.743961	
6498.246106	1.744170	
6498.247791	1.743896	
6498.249389	1.744062	
6498.251048	1.744030	
6498.252633	1.744025	
6498.254324	1.743981	
6498.255886	1.744033	
6498.257590	1.743977	
6498.259146	1.744098	
6498.260838	1.743973	
6498.262394	1.744094	
6498.264116	1.744021	
6498.265646	1.744078	
6498.267395	1.744009	
6498.268870	1.743989	
6498.270649	1.743961	
6498.272124	1.743977	
6498.273915	1.743985	
6498.275392	1.743929	
6498.277175	1.743977	
6498.278656	1.744090	
6498.280444	1.743993	
6498.281923	1.744009	
6498.283697	1.744062	
6498.285201	1.744021	
6498.286933	1.743965	
6498.288446	1.743933	
6498.290174	1.744086	
6498.291699	1.744142	
6498.293421	1.744122	
6498.294975	1.744037	
6498.296682	1.744130	
6498.298226	1.743977	
6498.299916	1.744158	
6498.301480	1.743993	
6498.303161	1.744227	
6498.304746	1.743836	
6498.306419	1.744066	
6498.308003	1.743941	
6498.309645	1.744110	
6498.311227	1.743892	
6498.312852	1.744058	
6498.314494	1.743913	
6498.316116	1.744134	
6498.317782	1.743876	
6498.319366	1.744102	
6498.321047	1.743933	
6498.322625	1.744094	
6498.324308	1.743917	
6498.325890	1.744030	
6498.327567	1.743844	
6498.329112	1.743989	
6498.330803	1.743989	
6498.332332	1.744170	
6498.334079	1.744013	
6498.335573	1.744025	
6498.337344	1.743961	
6498.338819	1.743985	
6498.340572	1.744009	
6498.342056	1.743917	
6498.343823	1.744098	
6498.345308	1.744001	
6498.347075	1.743993	
6498.348565	1.743900	
6498.350319	1.743884	
6498.351825	1.743973	
6498.353545	1.743828	
6498.355067	1.743913	
6498.356810	1.743868	
6498.358342	1.743892	
6498.360038	1.743901	
6498.361577	1.743804	
6498.363256	1.744054	
6498.364814	1.743655	
6498.366484	1.744038	
6498.368063	1.743598	
6498.369734	1.743949	
6498.371334	1.743308	
6498.372959	1.743917	
6498.374580	1.741814	
6498.376214	1.742664	
6498.377827	1.709410	
6498.379427	1.723014	
6498.381068	1.628445	
6498.382669	1.683919	
6498.384356	1.579706	
6498.385927	1.614853	
6498.387617	1.455054	
6498.389172	1.520018	
6498.390843	1.416781	
6498.392394	1.439392	
6498.394098	1.379660	
6498.395634	1.369077	
6498.397379	1.337922	
6498.398856	1.308395	
6498.400638	1.283306	
6498.402118	1.261412	
6498.403901	1.245384	
6498.405382	1.205491	
6498.407139	1.248224	
6498.408620	1.145900	
6498.410395	1.207969	
6498.411883	1.129239	
6498.413651	1.188576	
6498.415154	1.066152	
6498.416876	1.195936	
6498.418394	1.057507	
6498.420115	1.175746	
6498.421652	1.026634	
6498.423352	1.163009	
6498.424900	0.990190	
6498.426574	1.156918	
6498.428135	0.968755	
6498.429813	1.147552	
6498.431391	0.966777	
6498.433050	1.136639	
6498.434644	0.939707	
6498.436290	1.125682	
6498.437906	0.953226	
6498.439532	1.078837	
6498.441170	0.903690	
6498.442782	1.057555	
6498.444412	0.902296	
6498.445988	1.036491	
6498.447673	0.906759	
6498.449232	0.980905	
6498.450935	0.910312	
6498.452479	0.948831	
6498.454163	0.872651	
6498.455721	0.909204	
6498.457411	0.827075	
6498.458922	0.897752	
6498.460671	0.845327	
6498.462162	0.843398	
6498.463965	0.855442	
6498.465444	0.777059	
6498.467218	0.830817	
6498.468692	0.763456	
6498.470453	0.791553	
6498.471933	0.680154	
6498.473690	0.766223	
6498.475197	0.668246	
6498.476955	0.708368	
6498.478468	0.557903	
6498.480199	0.716743	
6498.481707	0.526276	
6498.483426	0.683558	
6498.484966	0.515033	
6498.486651	0.635568	
6498.488205	0.442181	
6498.489887	0.623423	
6498.491460	0.411626	
6498.493150	0.577239	
6498.494732	0.377514	
6498.496377	0.554527	
6498.497964	0.351359	
6498.499607	0.520306	
6498.501222	0.320272	
6498.502839	0.474540	
6498.504477	0.258909	
6498.506085	0.433967	
6498.507736	0.266333	
6498.509337	0.364221	
6498.510988	0.254095	
6498.512570	0.347141	
6498.514245	0.250534	
6498.515799	0.301907	
6498.517517	0.222795	
6498.519055	0.277531	
6498.520756	0.177887	
6498.522266	0.223649	
6498.524004	0.206653	
6498.525490	0.173234	
6498.527273	0.172855	
6498.528753	0.171909	
6498.530541	0.203833	
6498.532022	0.152879	
6498.533794	0.186246	
6498.535275	0.106956	
6498.537039	0.201296	
6498.538538	0.089038	
6498.540281	0.206250	
6498.541798	0.060365	
6498.543543	0.190584	
6498.545065	0.052292	
6498.546782	0.221155	
6498.548311	0.047003	
6498.550001	0.211257	
6498.551551	0.072132	
6498.553250	0.213844	
6498.554826	0.007827	
6498.556488	0.240310	
6498.558065	0.028807	
6498.559733	0.210243	
6498.561319	0.029218	
6498.562959	0.235339	
6498.564562	0.029742	
6498.566186	0.238130	
6498.567827	0.067620	
6498.569429	0.243569	
6498.571111	0.084510	
6498.572708	0.218239	
6498.574359	0.098787	
6498.575944	0.210158	
6498.577635	0.141185	
6498.579193	0.228708	
6498.580907	0.103875	
6498.582460	0.203326	
6498.584145	0.174435	
6498.585637	0.110163	
6498.587200	0.095032	
6498.588703	0.086613	
6498.590217	0.115746	
6498.591793	0.096902	
6498.593281	0.088934	
6498.594875	0.150221	
6498.596354	0.193714	
6498.597984	0.128459	
6498.599491	0.151066	
6498.601134	0.134643	
6498.602610	0.103826	
6498.604249	0.153794	
6498.605722	0.062133	
6498.607354	0.131549	
6498.608847	0.062178	
6498.610397	0.077715	
6498.611904	0.040404	
6498.613485	0.115537	
6498.615030	0.027232	
6498.616560	0.128685	
6498.618153	0.077932	
6498.619650	0.082110	
6498.621299	0.015155	
6498.622806	0.027546	
6498.624455	-0.002098	
6498.625934	0.003984	
6498.627564	0.027349	
6498.629042	-0.051917	
6498.630686	0.026289	
6498.632171	-0.049979	
6498.633805	0.043853	
6498.635323	-0.033366	
6498.636916	0.015715	
6498.638457	-0.104978	
6498.640035	-0.030192	
6498.641584	-0.088039	
6498.643062	-0.044170	
6498.644733	-0.082415	
6498.646225	-0.072167	
6498.647852	-0.101010	
6498.649373	-0.129893	
6498.650991	-0.104341	
6498.652477	-0.138252	
6498.654115	-0.098311	
6498.655613	-0.224981	
6498.657264	-0.074902	
6498.658741	-0.199982	
6498.660371	-0.128491	
6498.661870	-0.183288	
6498.663441	-0.129583	
6498.664978	-0.221859	
6498.666507	-0.148322	
6498.668131	-0.177073	
6498.669621	-0.190056	
6498.671232	-0.176601	
6498.672758	-0.220977	
6498.674382	-0.210314	
6498.675860	-0.228623	
6498.677515	-0.160335	
6498.678988	-0.246593	
6498.680635	-0.145116	
6498.682111	-0.204566	
6498.683830	-0.139476	
6498.685309	-0.242315	
6498.687001	-0.126279	
6498.688494	-0.235967	
6498.690165	-0.119423	
6498.691694	-0.254916	
6498.693315	-0.128414	
6498.694871	-0.281346	
6498.696479	-0.119915	
6498.698060	-0.261832	
6498.699636	-0.122034	
6498.701239	-0.244680	
6498.702781	-0.106380	
6498.704432	-0.192545	
6498.705918	-0.175618	
6498.707634	-0.170095	
6498.709106	-0.187055	
6498.710819	-0.154643	
6498.712301	-0.181455	
6498.713986	-0.127182	
6498.715468	-0.202173	
6498.717181	-0.078814	
6498.718666	-0.203176	
6498.720372	-0.098653	
6498.721863	-0.193415	
6498.723533	-0.096168	
6498.725059	-0.209291	
6498.726705	-0.108877	
6498.728241	-0.258388	
6498.729866	-0.065681	
6498.731439	-0.220462	
6498.733020	-0.067301	
6498.734626	-0.157841	
6498.736172	-0.105139	
6498.737815	-0.175852	
6498.739291	-0.129695	
6498.741006	-0.172251	
6498.742479	-0.168935	
6498.744206	-0.186100	
6498.745680	-0.187163	
6498.747390	-0.163155	
6498.748872	-0.220748	
6498.750573	-0.150808	
6498.752060	-0.195035	
6498.753845	-0.168456	
6498.755328	-0.217891	
6498.757104	-0.192735	
6498.758589	-0.255186	
6498.760367	-0.187522	
6498.761857	-0.280943	
6498.763606	-0.192706	
6498.765110	-0.313910	
6498.766859	-0.217340	
6498.768389	-0.321286	
6498.770106	-0.239757	
6498.771634	-0.383778	
6498.773362	-0.270820	
6498.774904	-0.438776	
6498.776599	-0.308158	
6498.778155	-0.481650	
6498.779834	-0.296979	
6498.781413	-0.513997	
6498.783064	-0.324936	
6498.784645	-0.528664	
6498.786293	-0.370549	
6498.787895	-0.614439	
6498.789536	-0.418252	
6498.791158	-0.633501	
6498.792754	-0.466544	
6498.794425	-0.667694	
6498.796011	-0.506891	
6498.797692	-0.679730	
6498.799286	-0.556299	
6498.800941	-0.696283	
6498.802520	-0.612240	
6498.804201	-0.723007	
6498.805763	-0.632599	
6498.807469	-0.752724	
6498.809012	-0.718612	
6498.810743	-0.813696	
6498.812280	-0.764091	
6498.814005	-0.764599	
6498.815507	-0.780720	
6498.817284	-0.769884	
6498.818778	-0.828959	
6498.820568	-0.820399	
6498.822052	-0.871096	
6498.823816	-0.807335	
6498.825295	-0.895769	
6498.827065	-0.831219	
6498.828545	-0.938981	
6498.830315	-0.829725	
6498.831820	-0.945471	
6498.833571	-0.862024	
6498.835080	-0.944037	
6498.836812	-0.864630	
6498.838329	-1.004421	
6498.840036	-0.854503	
6498.841580	-1.031560	
6498.843274	-0.865698	
6498.844827	-1.081781	
6498.846505	-0.856827	
6498.848090	-1.044177	
6498.849775	-0.873468	
6498.851356	-1.084496	
6498.853019	-0.910251	
6498.854612	-1.122266	
6498.856254	-0.932093	
6498.857879	-1.144917	
6498.859483	-0.945422	
6498.861123	-1.163072	
6498.862729	-0.994233	
6498.864378	-1.112283	
6498.865986	-1.027890	
6498.867643	-1.153412	
6498.869221	-1.061680	
6498.870923	-1.149573	
6498.872480	-1.100118	
6498.874181	-1.215739	
6498.875722	-1.148941	
6498.877434	-1.219731	
6498.878978	-1.200894	
6498.880691	-1.246930	
6498.882200	-1.265436	
6498.883955	-1.290279	
6498.885435	-1.315141	
6498.887215	-1.343972	
6498.888697	-1.402862	
6498.890470	-1.399072	
6498.891953	-1.465499	
6498.893714	-1.426239	
6498.895201	-1.505383	
6498.896972	-1.459263	
6498.898473	-1.509149	
6498.900240	-1.508557	
6498.901743	-1.509331	
6498.903460	-1.509375	
6498.904986	-1.509452	
6498.906699	-1.509359	
6498.908227	-1.509439	
6498.909924	-1.509347	
6498.911486	-1.509601	
6498.913167	-1.509359	
6498.914734	-1.509500	
6498.916411	-1.509323	
6498.917991	-1.509508	
6498.919639	-1.509383	
6498.921234	-1.509516	
6498.922864	-1.509379	
6498.924487	-1.509601	
6498.926087	-1.509423	
6498.927739	-1.509605	
6498.929332	-1.509439	
6498.930976	-1.509516	
6498.932567	-1.509387	
6498.934270	-1.509504	
6498.935813	-1.509411	
6498.937521	-1.509460	
6498.939074	-1.509480	
6498.940774	-1.509536	
6498.942322	-1.509468	
6498.944026	-1.509508	
6498.945540	-1.509460	
6498.947307	-1.509508	
6498.948789	-1.509484	
6498.950541	-1.509556	
6498.952027	-1.509439	
6498.953795	-1.509488	
6498.955276	-1.509464	
6498.957058	-1.509512	
6498.958542	-1.509605	
6498.960305	-1.509452	
6498.961805	-1.509504	
6498.963566	-1.509556	
6498.965071	-1.509572	
6498.966796	-1.509435	
6498.968314	-1.509572	
6498.970025	-1.509383	
6498.971572	-1.509516	
6498.973272	-1.509492	
6498.974836	-1.509488	
6498.976524	-1.509544	
6498.978078	-1.509613	
6498.979744	-1.509419	
6498.981312	-1.509568	
6498.982967	-1.509480	
6498.984570	-1.509536	
6498.986208	-1.509331	
6498.987834	-1.509588	
6498.989449	-1.509476	
6498.991090	-1.509641	
6498.992691	-1.509363	
6498.994351	-1.509500	
6498.995949	-1.509379	
6498.997621	-1.509548	
6498.999198	-1.509504	
6499.000892	-1.509637	
6499.002446	-1.509536	
6499.004151	-1.509528	
6499.005699	-1.509399	
6499.007401	-1.509588	
6499.008938	-1.509456	
6499.010653	-1.509568	
6499.012162	-1.509460	
6499.013914	-1.509472	
6499.015389	-1.509572	
6499.017170	-1.509504	
6499.018648	-1.509468	
6499.020416	-1.509540	
6499.021905	-1.509597	
6499.023636	-1.509605	
6499.025135	-1.509564	
6499.026878	-1.509540	
6499.028390	-1.509605	
6499.030132	-1.509427	
6499.031656	-1.509496	
6499.033360	-1.509500	
6499.034891	-1.509552	
6499.036593	-1.509528	
6499.038155	-1.509544	
6499.039849	-1.509383	
6499.041423	-1.509544	
6499.043082	-1.509576	
6499.044652	-1.509536	
6499.046303	-1.509576	
6499.047895	-1.509593	
6499.049543	-1.509399	
6499.051158	-1.509613	
6499.052773	-1.509512	
6499.054420	-1.509589	
6499.056023	-1.509472	
6499.057682	-1.509637	
6499.059270	-1.509516	
6499.060934	-1.509580	
6499.062509	-1.509452	
6499.064225	-1.509657	
6499.065769	-1.509520	
6499.067480	-1.509496	
6499.069027	-1.509516	
6499.070733	-1.509653	
6499.072277	-1.509532	
6499.073995	-1.509472	
6499.075509	-1.509459	
6499.077249	-1.509568	
6499.078733	-1.509536	
6499.080527	-1.509568	
6499.082008	-1.509492	
6499.083798	-1.509464	
6499.085281	-1.509572	
6499.087050	-1.509597	
6499.088531	-1.509468	
6499.090296	-1.509488	
6499.091794	-1.509572	
6499.093566	-1.509464	
6499.095071	-1.509540	
6499.096803	-1.509516	
6499.098322	-1.509476	
6499.100021	-1.509512	
6499.101553	-1.509516	
6499.103246	-1.509456	
6499.104809	-1.509548	
6499.106503	-1.509435	
6499.108065	-1.509536	
6499.109737	-1.509367	
6499.111320	-1.509564	
6499.112969	-1.509415	
6499.114544	-1.509597	
6499.116175	-1.509496	
6499.117799	-1.509516	
6499.119411	-1.509435	
6499.121064	-1.509435	
6499.122665	-1.509419	
6499.124306	-1.509484	
6499.125798	-1.509576	
6499.127353	-1.509560	
6499.128857	-1.509548	
6499.130409	-1.509492	
6499.131947	-1.509452	
6499.133437	-1.509234	
6499.135016	-1.509004	
6499.136520	-1.504062	
6499.138110	-1.440712	
6499.139593	-1.345652	
6499.141218	-1.300990	
6499.142744	-1.240827	
6499.144390	-1.172060	
6499.145865	-1.153179	
6499.147500	-1.010145	
6499.148982	-1.064129	
6499.150619	-0.812262	
6499.152109	-0.846148	
6499.153732	-0.710877	
6499.155236	-0.745944	
6499.156843	-0.576694	
6499.158362	-0.609295	
6499.159928	-0.477964	
6499.161509	-0.426591	
6499.163002	-0.313431	
6499.164678	-0.285442	
6499.166168	-0.256092	
6499.167790	-0.197794	
6499.169312	-0.120293	
6499.170949	-0.052372	
6499.172429	-0.040682	
6499.174076	0.111190	
6499.175553	0.121156	
6499.177194	0.292690	
6499.178679	0.278164	
6499.180317	0.408609	
6499.181815	0.357401	
6499.183397	0.547582	
6499.184936	0.541205	
6499.186470	0.670611	
6499.188096	0.663694	
6499.189573	0.778147	
6499.191193	0.842677	
6499.192708	0.885562	
6499.194357	0.958350	
6499.195837	1.059642	
6499.197486	1.188162	
6499.198957	1.191759	
6499.200594	1.364288	
6499.202071	1.325479	
6499.203716	1.499454	
6499.205211	1.511833	
6499.206797	1.674170	
6499.208337	1.660184	
6499.209881	1.706296	
6499.211467	1.743449	
6499.212963	1.743687	
6499.214598	1.743627	
6499.216144	1.743860	
6499.217786	1.743739	
6499.219285	1.743852	
6499.220974	1.743775	
6499.222455	1.743977	
6499.224185	1.743896	
6499.225666	1.743876	
6499.227395	1.743892	
6499.228884	1.743820	
6499.230609	1.743901	
6499.232090	1.743957	
6499.233793	1.743945	
6499.235274	1.743884	
6499.236962	1.744030	
6499.238454	1.743864	
6499.240112	1.744046	
6499.241636	1.743844	
6499.243287	1.744050	
6499.244841	1.743973	
6499.246446	1.744070	
6499.248039	1.743901	
6499.249630	1.744038	
6499.251216	1.743901	
6499.252765	1.744130	
6499.254425	1.744086	
6499.255920	1.744058	
6499.257634	1.743981	
6499.259108	1.743997	
6499.260839	1.743997	
6499.262310	1.744046	
6499.264035	1.744038	
6499.265515	1.744078	
6499.267230	1.744021	
6499.268703	1.743929	
6499.270409	1.744090	
6499.271896	1.743909	
6499.273598	1.744094	
6499.275107	1.743973	
6499.276764	1.744017	
6499.278289	1.743913	
6499.279929	1.744037	
6499.281477	1.743925	
6499.283079	1.743933	
6499.284669	1.743900	
6499.286231	1.744025	
6499.287850	1.743937	
6499.289384	1.744070	
6499.291058	1.744025	
6499.292631	1.744162	
6499.294317	1.743909	
6499.295916	1.744054	
6499.297575	1.743981	
6499.299159	1.744098	
6499.300849	1.744058	
6499.302426	1.744106	
6499.304137	1.743913	
6499.305680	1.744013	
6499.307389	1.743961	
6499.308934	1.744074	
6499.310656	1.743981	
6499.312158	1.743977	
6499.313897	1.744025	
6499.315396	1.744013	
6499.317166	1.744038	
6499.318643	1.743876	
6499.320436	1.744038	
6499.321912	1.743989	
6499.323694	1.744066	
6499.325178	1.743973	
6499.326952	1.744054	
6499.328453	1.743965	
6499.330215	1.744009	
6499.331724	1.744086	
6499.333439	1.743981	
6499.334955	1.744001	
6499.336662	1.744066	
6499.338205	1.743989	
6499.339892	1.744158	
6499.341445	1.743993	
6499.343121	1.743989	
6499.344698	1.743997	
6499.346367	1.744223	
6499.347958	1.743933	
6499.349604	1.744017	
6499.351192	1.743929	
6499.352833	1.744098	
6499.354439	1.743949	
6499.356047	1.744134	
6499.357709	1.743893	
6499.359287	1.744203	
6499.360974	1.743969	
6499.362570	1.744009	
6499.364220	1.743917	
6499.365791	1.744130	
6499.367495	1.744025	
6499.369047	1.744199	
6499.370758	1.743896	
6499.372298	1.743989	
6499.374010	1.743961	
6499.375526	1.744090	
6499.377243	1.743957	
6499.378732	1.744078	
6499.380527	1.744029	
6499.382009	1.744058	
6499.383787	1.744062	
6499.385263	1.744158	
6499.387045	1.744041	
6499.388523	1.743957	
6499.390298	1.744090	
6499.391785	1.743945	
6499.393532	1.744013	
6499.395055	1.743929	
6499.396793	1.744074	
6499.398308	1.743864	
6499.400025	1.744009	
6499.401556	1.743921	
6499.403247	1.744130	
6499.404794	1.743820	
6499.406486	1.743997	
6499.408053	1.743816	
6499.409736	1.744013	
6499.411318	1.743764	
6499.412988	1.744134	
6499.414576	1.743760	
6499.416214	1.743868	
6499.417803	1.743522	
6499.419417	1.744021	
6499.421057	1.743542	
6499.422661	1.743981	
6499.424341	1.743155	
6499.425937	1.743719	
6499.427599	1.741471	
6499.429182	1.741786	
6499.430845	1.729374	
6499.432401	1.717857	
6499.434106	1.685079	
6499.435642	1.676192	
6499.437356	1.651253	
6499.438896	1.616686	
6499.440601	1.597576	
6499.442098	1.561913	
6499.443859	1.561518	
6499.445344	1.513062	
6499.447125	1.516828	
6499.448609	1.454176	
6499.450403	1.525247	
6499.451882	1.453890	
6499.453643	1.482249	
6499.455129	1.347159	
6499.456891	1.454595	
6499.458402	1.335574	
6499.460167	1.452871	
6499.461677	1.337282	
6499.463407	1.427786	
6499.464929	1.285232	
6499.466629	1.426251	
6499.468169	1.258649	
6499.469880	1.392498	
6499.471439	1.247486	
6499.473128	1.378729	
6499.474721	1.147705	
6499.476394	1.361714	
6499.477962	1.173494	
6499.479624	1.364473	
6499.481220	1.202091	
6499.482873	1.325543	
6499.484477	1.152789	
6499.486094	1.302248	
6499.487730	1.103676	
6499.489357	1.271902	
6499.491017	1.123483	
6499.492618	1.205318	
6499.494273	1.066651	
6499.495854	1.196601	
6499.497539	1.088851	
6499.499113	1.139080	
6499.500817	1.045487	
6499.502385	1.117098	
6499.504068	1.033172	
6499.505614	1.052314	
6499.507327	1.009127	
6499.508843	1.002657	
6499.510602	0.938563	
6499.512086	0.953882	
6499.513844	0.979212	
6499.515327	0.876990	
6499.517109	0.917656	
6499.518594	0.832368	
6499.520393	0.850947	
6499.521882	0.769752	
6499.523666	0.813262	
6499.525148	0.768842	
6499.526906	0.807131	
6499.528405	0.685073	
6499.530139	0.792021	
6499.531656	0.611052	
6499.533381	0.725150	
6499.534910	0.577146	
6499.536627	0.694402	
6499.538182	0.503621	
6499.539900	0.648387	
6499.541445	0.476382	
6499.543113	0.605239	
6499.544667	0.407219	
6499.546324	0.582935	
6499.547900	0.392177	
6499.549541	0.541374	
6499.551145	0.346545	
6499.552770	0.497715	
6499.554393	0.281197	
6499.556014	0.431309	
6499.557654	0.266264	
6499.559275	0.390538	
6499.560955	0.235770	
6499.562540	0.378820	
6499.564231	0.257708	
6499.565804	0.328466	
6499.567508	0.221957	
6499.569075	0.302987	
6499.570764	0.234312	
6499.572334	0.269954	
6499.574044	0.158914	
6499.575589	0.235983	
6499.577296	0.183390	
6499.578802	0.194431	
6499.580568	0.209115	
6499.582053	0.185972	
6499.583860	0.189372	
6499.585347	0.141262	
6499.587131	0.186794	
6499.588617	0.130860	
6499.590401	0.205505	
6499.591877	0.134180	
6499.593654	0.219234	
6499.595132	0.113780	
6499.596888	0.223351	
6499.598386	0.087185	
6499.600127	0.224060	
6499.601644	0.098630	
6499.603372	0.244040	
6499.604893	0.062089	
6499.606585	0.260367	
6499.608130	0.068639	
6499.609811	0.265616	
6499.611367	0.108463	
6499.613037	0.299180	
6499.614624	0.126747	
6499.616281	0.290056	
6499.617874	0.103504	
6499.619509	0.276186	
6499.621099	0.085328	
6499.622730	0.262147	
6499.624369	0.103963	
6499.625961	0.250091	
6499.627633	0.143396	
6499.629208	0.248177	
6499.630895	0.147433	
6499.632461	0.234662	
6499.634131	0.161830	
6499.635696	0.211443	
6499.637389	0.126703	
6499.638939	0.201453	
6499.640645	0.133209	
6499.642173	0.163208	
6499.643908	0.143062	
6499.645392	0.161754	
6499.647157	0.169532	
6499.648635	0.132214	
6499.650400	0.164779	
6499.651897	0.134542	
6499.653682	0.155465	
6499.655159	0.091987	
6499.656926	0.142244	
6499.658420	0.043438	
6499.660155	0.143981	
6499.661663	0.023904	
6499.663388	0.159800	
6499.664918	-0.033596	
6499.666664	0.143409	
6499.668191	-0.040033	
6499.669903	0.116830	
6499.671450	-0.063277	
6499.673142	0.104072	
6499.674709	-0.117941	
6499.676406	0.061980	
6499.677982	-0.112720	
6499.679639	0.070927	
6499.681233	-0.137974	
6499.682893	0.036739	
6499.684499	-0.148403	
6499.686145	-0.003246	
6499.687738	-0.175054	
6499.689356	-0.042865	
6499.691011	-0.177310	
6499.692604	-0.078443	
6499.694267	-0.201806	
6499.695736	-0.278812	
6499.697324	-0.231439	
6499.698820	-0.249143	
6499.700375	-0.269889	
6499.701914	-0.261430	
6499.703395	-0.278477	
6499.704989	-0.269325	
6499.706476	-0.323699	
6499.708084	-0.339462	
6499.709563	-0.332827	
6499.711194	-0.325762	
6499.712705	-0.331180	
6499.714361	-0.289616	
6499.715837	-0.332332	
6499.717475	-0.305375	
6499.718948	-0.374243	
6499.720586	-0.316025	
6499.722067	-0.434099	
6499.723713	-0.314978	
6499.725222	-0.417346	
6499.726803	-0.332622	
6499.728338	-0.423710	
6499.729899	-0.362702	
6499.731465	-0.416746	
6499.732958	-0.385119	
6499.734615	-0.391194	
6499.736106	-0.374875	
6499.737748	-0.424435	
6499.739261	-0.409450	
6499.740889	-0.354399	
6499.742371	-0.465029	
6499.744008	-0.373179	
6499.745499	-0.427916	
6499.747134	-0.326455	
6499.748637	-0.460989	
6499.750270	-0.328920	
6499.751759	-0.415658	
6499.753338	-0.360740	
6499.754883	-0.441052	
6499.756398	-0.374609	
6499.758026	-0.380466	
6499.759520	-0.383806	
6499.761150	-0.432585	
6499.762666	-0.376023	
6499.764303	-0.379226	
6499.765792	-0.449290	
6499.767466	-0.360309	
6499.768939	-0.437395	
6499.770596	-0.350778	
6499.772078	-0.466648	
6499.773729	-0.325629	
6499.775207	-0.485118	
6499.776829	-0.362786	
6499.778351	-0.459861	
6499.779927	-0.401772	
6499.781481	-0.461553	
6499.782976	-0.428202	
6499.784633	-0.420508	
6499.786117	-0.409225	
6499.787752	-0.475192	
6499.789273	-0.424705	
6499.790957	-0.498653	
6499.792428	-0.462560	
6499.794139	-0.473513	
6499.795616	-0.478806	
6499.797307	-0.480208	
6499.798787	-0.592932	
6499.800499	-0.486347	
6499.801987	-0.590962	
6499.803688	-0.528205	
6499.805170	-0.647798	
6499.806862	-0.536463	
6499.808356	-0.702063	
6499.809996	-0.600115	
6499.811525	-0.722785	
6499.813151	-0.587482	
6499.814714	-0.788193	
6499.816288	-0.677696	
6499.817899	-0.815384	
6499.819452	-0.733182	
6499.821074	-0.878049	
6499.822588	-0.823030	
6499.824259	-0.881001	
6499.825734	-0.870089	
6499.827438	-0.956943	
6499.828911	-0.971030	
6499.830619	-0.945805	
6499.832106	-1.006616	
6499.833803	-0.994568	
6499.835301	-1.108275	
6499.837019	-1.041941	
6499.838497	-1.211533	
6499.840182	-1.083126	
6499.841681	-1.235207	
6499.843338	-1.150359	
6499.844862	-1.301465	
6499.846491	-1.173917	
6499.848064	-1.367630	
6499.849633	-1.243852	
6499.851234	-1.370273	
6499.852783	-1.302384	
6499.854418	-1.423237	
6499.855933	-1.398636	
6499.857635	-1.446255	
6499.859115	-1.466542	
6499.860822	-1.479372	
6499.862306	-1.494023	
6499.864012	-1.480282	
6499.865572	-1.492649	
6499.867287	-1.488234	
6499.868804	-1.505907	
6499.870546	-1.506253	
6499.872032	-1.509234	
6499.873786	-1.509315	
6499.875267	-1.509274	
6499.877028	-1.509323	
6499.878510	-1.509286	
6499.880302	-1.509226	
6499.881784	-1.509335	
6499.883544	-1.509311	
6499.885045	-1.509439	
6499.886788	-1.509206	
6499.888297	-1.509496	
6499.890033	-1.509246	
6499.891562	-1.509476	
6499.893288	-1.509472	
6499.894822	-1.509484	
6499.896516	-1.509351	
6499.898068	-1.509544	
6499.899751	-1.509359	
6499.901317	-1.509439	
6499.902986	-1.509407	
6499.904563	-1.509540	
6499.906197	-1.509383	
6499.907796	-1.509552	
6499.909444	-1.509331	
6499.911061	-1.509548	
6499.912682	-1.509379	
6499.914331	-1.509540	
6499.915926	-1.509339	
6499.917593	-1.509456	
6499.919169	-1.509423	
6499.920857	-1.509593	
6499.922412	-1.509484	
6499.924119	-1.509508	
6499.925690	-1.509435	
6499.927383	-1.509460	
6499.928941	-1.509468	
6499.930670	-1.509564	
6499.932210	-1.509431	
6499.933927	-1.509576	
6499.935426	-1.509480	
6499.937187	-1.509524	
6499.938665	-1.509262	
6499.940457	-1.509452	
6499.941943	-1.509399	
6499.943727	-1.509480	
6499.945201	-1.509464	
6499.946976	-1.509500	
6499.948451	-1.509556	
6499.950195	-1.509512	
6499.951694	-1.509500	
6499.953420	-1.509584	
6499.954933	-1.509516	
6499.956659	-1.509560	
6499.958193	-1.509540	
6499.959913	-1.509427	
6499.961441	-1.509588	
6499.963131	-1.509415	
6499.964685	-1.509540	
6499.966350	-1.509456	
6499.967914	-1.509609	
6499.969577	-1.509419	
6499.971176	-1.509669	
6499.972795	-1.509532	
6499.974401	-1.509532	
6499.976048	-1.509395	
6499.977666	-1.509568	
6499.979272	-1.509435	
6499.980916	-1.509576	
6499.982510	-1.509536	
6499.984203	-1.509528	
6499.985769	-1.509512	
6499.987479	-1.509488	
6499.989052	-1.509431	
6499.990734	-1.509597	
6499.992293	-1.509536	
6499.993978	-1.509480	
6499.995510	-1.509476	
6499.997248	-1.509552	
6499.998748	-1.509520	
6500.000515	-1.509443	
6500.001994	-1.509452	
6500.003777	-1.509584	
6500.005258	-1.509520	
6500.007030	-1.509500	
6500.008518	-1.509512	
6500.010321	-1.509532	
6500.011801	-1.509504	
6500.013593	-1.509500	
6500.015078	-1.509516	
6500.016851	-1.509597	
6500.018356	-1.509520	
6500.020106	-1.509528	
6500.021626	-1.509492	
6500.023376	-1.509496	
6500.024893	-1.509568	
6500.026616	-1.509492	
6500.028151	-1.509585	
6500.029846	-1.509456	
6500.031399	-1.509649	
6500.033075	-1.509488	
6500.034632	-1.509597	
6500.036281	-1.509492	
6500.037865	-1.509576	
6500.039504	-1.509520	
6500.041098	-1.509641	
6500.042734	-1.509403	
6500.044342	-1.509568	
6500.045959	-1.509407	
6500.047631	-1.509605	
6500.049220	-1.509399	
6500.050882	-1.509544	
6500.052461	-1.509387	
6500.054148	-1.509452	
6500.055726	-1.509407	
6500.057422	-1.509572	
6500.058987	-1.509443	
6500.060710	-1.509524	
6500.062242	-1.509488	
6500.063938	-1.509544	
6500.065467	-1.509456	
6500.067211	-1.509536	
6500.068713	-1.509504	
6500.070474	-1.509484	
6500.071960	-1.509435	
6500.073760	-1.509484	
6500.075241	-1.509500	
6500.077035	-1.509508	
6500.078521	-1.509584	
6500.080300	-1.509580	
6500.081782	-1.509504	
6500.083556	-1.509548	
6500.085066	-1.509568	
6500.086839	-1.509508	
6500.088339	-1.509568	
6500.090077	-1.509419	
6500.091592	-1.509500	
6500.093311	-1.509520	
6500.094842	-1.509435	
6500.096542	-1.509484	
6500.098089	-1.509484	
6500.099778	-1.509484	
6500.101341	-1.509532	
6500.103016	-1.509399	
6500.104592	-1.509524	
6500.106263	-1.509343	
6500.107844	-1.509605	
6500.109496	-1.509411	
6500.111117	-1.509552	
6500.112733	-1.509460	
6500.114362	-1.509488	
6500.115985	-1.509407	
6500.117653	-1.509488	
6500.119257	-1.509387	
6500.120908	-1.509508	
6500.122506	-1.509387	
6500.124199	-1.509516	
6500.125763	-1.509443	
6500.127441	-1.509423	
6500.128986	-1.509355	
6500.130701	-1.509371	
6500.132257	-1.508142	
6500.133959	-1.503063	
6500.135495	-1.448132	
6500.137207	-1.392175	
6500.138683	-1.331509	
6500.140457	-1.237504	
6500.141936	-1.158967	
6500.143707	-1.069994	
6500.145191	-1.007382	
6500.146958	-0.849725	
6500.148442	-0.858350	
6500.150194	-0.654924	
6500.151696	-0.666876	
6500.153456	-0.500236	
6500.154961	-0.555678	
6500.156686	-0.311908	
6500.158200	-0.351765	
6500.159913	-0.158639	
6500.161459	-0.255383	
6500.163175	0.016186	
6500.164729	-0.106504	
6500.166433	0.182669	
6500.167999	0.069928	
6500.169686	0.316808	
6500.171253	0.189670	
6500.172913	0.451768	
6500.174500	0.324034	
6500.176163	0.583599	
6500.177776	0.457626	
6500.179405	0.747673	
6500.181028	0.644612	
6500.182646	0.864502	
6500.184309	0.800927	
6500.185914	1.002238	
6500.187582	0.920955	
6500.189162	1.096682	
6500.190847	1.064847	
6500.192407	1.223683	
6500.194110	1.139817	
6500.195692	1.322115	
6500.197367	1.348158	
6500.198918	1.438796	
6500.200644	1.448931	
6500.202188	1.536849	
6500.203900	1.566892	
6500.205413	1.622579	
6500.207168	1.718297	
6500.208654	1.700109	
6500.210424	1.742257	
6500.211912	1.743055	
6500.213679	1.743776	
6500.215172	1.743836	
6500.216951	1.743836	
6500.218430	1.743723	
6500.220206	1.743913	
6500.221697	1.743800	
6500.223445	1.743973	
6500.224950	1.743929	
6500.226691	1.743945	
6500.228218	1.743941	
6500.229929	1.744062	
6500.231461	1.743912	
6500.233168	1.744170	
6500.234714	1.743884	
6500.236413	1.744078	
6500.237977	1.743828	
6500.239680	1.744179	
6500.241254	1.743913	
6500.242915	1.744054	
6500.244492	1.743893	
6500.246147	1.744126	
6500.247753	1.743900	
6500.249285	1.743893	
6500.250848	1.744001	
6500.252342	1.743945	
6500.253893	1.743933	
6500.255393	1.743941	
6500.256948	1.744001	
6500.258477	1.744033	
6500.259969	1.744045	
6500.261529	1.743832	
6500.263048	1.743925	
6500.264651	1.743965	
6500.266142	1.744009	
6500.267771	1.743901	
6500.269293	1.744009	
6500.270946	1.743989	
6500.272437	1.743965	
6500.274085	1.743981	
6500.275575	1.743997	
6500.277223	1.744001	
6500.278707	1.743888	
6500.280350	1.744050	
6500.281828	1.743888	
6500.283438	1.744074	
6500.284948	1.743896	
6500.286506	1.744005	
6500.288068	1.743921	
6500.289563	1.743973	
6500.291209	1.744098	
6500.292711	1.743937	
6500.294332	1.743925	
6500.295855	1.744033	
6500.297511	1.743945	
6500.298987	1.743973	
6500.300625	1.743933	
6500.302107	1.743881	
6500.303761	1.744054	
6500.305243	1.743957	
6500.306885	1.744090	
6500.308386	1.743929	
6500.309972	1.743977	
6500.311513	1.743929	
6500.313046	1.744146	
6500.314660	1.743876	
6500.316156	1.743977	
6500.317794	1.743925	
6500.319307	1.743913	
6500.320958	1.743909	
6500.322434	1.743973	
6500.324066	1.744058	
6500.325537	1.743913	
6500.327185	1.744130	
6500.328670	1.743981	
6500.330289	1.743969	
6500.331789	1.743937	
6500.333378	1.744082	
6500.334921	1.744013	
6500.336451	1.744017	
6500.338035	1.743973	
6500.339526	1.744017	
6500.341166	1.743997	
6500.342738	1.744062	
6500.344348	1.743884	
6500.345873	1.744009	
6500.347545	1.743961	
6500.349031	1.744042	
6500.350747	1.743957	
6500.352217	1.743989	
6500.353944	1.743977	
6500.355426	1.744037	
6500.357123	1.744074	
6500.358604	1.743840	
6500.360297	1.744050	
6500.361775	1.743876	
6500.363459	1.744025	
6500.364965	1.743929	
6500.366614	1.744174	
6500.368164	1.743888	
6500.369771	1.744082	
6500.371338	1.743848	
6500.372936	1.744058	
6500.374515	1.743953	
6500.376093	1.744174	
6500.377703	1.743953	
6500.379205	1.744078	
6500.380886	1.743901	
6500.382368	1.744025	
6500.384102	1.743925	
6500.385570	1.743985	
6500.387294	1.743913	
6500.388776	1.744001	
6500.390482	1.744017	
6500.391961	1.743989	
6500.393670	1.744066	
6500.395152	1.743933	
6500.396827	1.744054	
6500.398325	1.743852	
6500.399979	1.744021	
6500.401516	1.743840	
6500.403158	1.743933	
6500.404706	1.743872	
6500.406299	1.743981	
6500.407891	1.743884	
6500.409460	1.744033	
6500.411048	1.743880	
6500.412589	1.744106	
6500.414273	1.743868	
6500.415863	1.744166	
6500.417538	1.743792	
6500.419121	1.744082	
6500.420801	1.743812	
6500.422369	1.743901	
6500.424043	1.743647	
6500.425610	1.744021	
6500.427326	1.743651	
6500.428873	1.743945	
6500.430596	1.743759	
6500.432121	1.743913	
6500.433854	1.743655	
6500.435355	1.743852	
6500.437108	1.743655	
6500.438595	1.743739	
6500.440394	1.742966	
6500.441875	1.743445	
6500.443655	1.741250	
6500.445141	1.728935	
6500.446937	1.723888	
6500.448412	1.651801	
6500.450177	1.724077	
6500.451669	1.602547	
6500.453417	1.617673	
6500.454933	1.464536	
6500.456671	1.546940	
6500.458192	1.378846	
6500.459918	1.483901	
6500.461452	1.304721	
6500.463143	1.420257	
6500.464688	1.218305	
6500.466340	1.351006	
6500.467910	1.166223	
6500.469581	1.312375	
6500.471169	1.053954	
6500.472834	1.237690	
6500.474425	1.039621	
6500.476074	1.173877	
6500.477693	0.974141	
6500.479303	1.128635	
6500.480941	0.935598	
6500.482536	1.048254	
6500.484209	0.902002	
6500.485815	1.016019	
6500.487452	0.883826	
6500.489039	0.942962	
6500.490728	0.837633	
6500.492285	0.910538	
6500.493997	0.825677	
6500.495542	0.872792	
6500.497250	0.827474	
6500.498784	0.832139	
6500.500501	0.796746	
6500.501976	0.805838	
6500.503747	0.790937	
6500.505239	0.770135	
6500.507011	0.782167	
6500.508490	0.719152	
6500.510261	0.757772	
6500.511745	0.697230	
6500.513519	0.787903	
6500.515006	0.655517	
6500.516738	0.790953	
6500.518251	0.667163	
6500.519987	0.775754	
6500.521509	0.616470	
6500.523250	0.753631	
6500.524785	0.616273	
6500.526489	0.749050	
6500.528043	0.609187	
6500.529756	0.762598	
6500.531308	0.558072	
6500.532985	0.758803	
6500.534566	0.593030	
6500.536226	0.750086	
6500.537803	0.539030	
6500.539463	0.723813	
6500.541056	0.560283	
6500.542694	0.696598	
6500.544323	0.500898	
6500.545930	0.675888	
6500.547580	0.511150	
6500.549176	0.669966	
6500.550846	0.487399	
6500.552432	0.636685	
6500.554085	0.509808	
6500.555651	0.574942	
6500.557352	0.489264	
6500.558891	0.550974	
6500.560604	0.486690	
6500.562146	0.525873	
6500.563880	0.496652	
6500.565402	0.483943	
6500.567136	0.483193	
6500.568619	0.489554	
6500.570417	0.439083	
6500.571893	0.429117	
6500.573672	0.412883	
6500.575156	0.399916	
6500.576929	0.421568	
6500.578414	0.324683	
6500.580170	0.380145	
6500.581671	0.324075	
6500.583399	0.386224	
6500.584926	0.285935	
6500.586658	0.364181	
6500.588190	0.233353	
6500.589905	0.365534	
6500.591437	0.188099	
6500.593158	0.324030	
6500.594700	0.166853	
6500.596407	0.335604	
6500.597965	0.117728	
6500.599656	0.316340	
6500.601215	0.122212	
6500.602884	0.286325	
6500.604465	0.105430	
6500.606111	0.259017	
6500.607701	0.055869	
6500.609318	0.234735	
6500.610950	0.075979	
6500.612542	0.212144	
6500.614231	0.047466	
6500.615828	0.179281	
6500.617491	0.070089	
6500.619088	0.153713	
6500.620765	0.062178	
6500.622321	0.137104	
6500.624029	0.056127	
6500.625589	0.117728	
6500.627312	0.017967	
6500.628864	0.084265	
6500.630554	0.078557	
6500.632078	0.064236	
6500.633815	0.050419	
6500.635315	0.085119	
6500.637092	0.025161	
6500.638566	0.053666	
6500.640351	0.096664	
6500.641829	0.004480	
6500.643588	0.067495	
6500.645067	0.029882	
6500.646808	0.104817	
6500.648313	0.034994	
6500.650048	0.116242	
6500.651559	0.020807	
6500.653288	0.121627	
6500.654813	-0.045918	
6500.656531	0.117865	
6500.658071	-0.022941	
6500.659777	0.150531	
6500.661325	-0.029120	
6500.662996	0.181271	
6500.664578	0.009612	
6500.666262	0.144827	
6500.667848	-0.020532	
6500.669500	0.185295	
6500.671068	0.000303	
6500.672709	0.173581	
6500.674314	0.005882	
6500.675920	0.159913	
6500.677580	-0.007980	
6500.679161	0.129591	
6500.680836	0.031111	
6500.682430	0.157331	
6500.684080	0.020956	
6500.685664	0.144214	
6500.687356	0.024670	
6500.688909	0.095149	
6500.690608	0.080531	
6500.692139	0.102199	
6500.693872	0.045690	
6500.695388	0.112314	
6500.697143	0.069400	
6500.698653	0.080885	
6500.700405	0.076583	
6500.701879	0.036578	
6500.703658	0.054149	
6500.705137	0.007719	
6500.706904	0.036155	
6500.708384	-0.005579	
6500.710153	0.050656	
6500.711646	-0.025511	
6500.713398	0.085518	
6500.714905	-0.045443	
6500.716673	0.076538	
6500.718187	-0.095833	
6500.719926	0.052574	
6500.721447	-0.104378	
6500.723156	0.035309	
6500.724705	-0.126819	
6500.726421	0.019743	
6500.727984	-0.148814	
6500.729694	0.029306	
6500.731251	-0.140665	
6500.732932	0.002909	
6500.734505	-0.176714	
6500.736149	-0.005962	
6500.737740	-0.215551	
6500.739377	-0.032130	
6500.740995	-0.206286	
6500.742611	-0.059478	
6500.744243	-0.210524	
6500.745852	-0.080397	
6500.747504	-0.227656	
6500.749094	-0.125059	
6500.750769	-0.216997	
6500.752341	-0.150651	
6500.754049	-0.242339	
6500.755587	-0.177044	
6500.757304	-0.257699	
6500.758857	-0.174196	
6500.760540	-0.242875	
6500.762069	-0.208453	
6500.763793	-0.218629	
6500.765291	-0.247741	
6500.767052	-0.218967	
6500.768529	-0.234831	
6500.770319	-0.237775	
6500.771796	-0.293052	
6500.773582	-0.240204	
6500.775063	-0.298627	
6500.776844	-0.239056	
6500.778344	-0.286453	
6500.780137	-0.214737	
6500.781624	-0.334423	
6500.783369	-0.214097	
6500.784883	-0.305483	
6500.786622	-0.216026	
6500.788146	-0.341742	
6500.789875	-0.220723	
6500.791422	-0.340977	
6500.793147	-0.203776	
6500.794691	-0.330624	
6500.796384	-0.182555	
6500.797946	-0.370597	
6500.799630	-0.159630	
6500.801201	-0.338113	
6500.802856	-0.172061	
6500.804455	-0.361126	
6500.806094	-0.187208	
6500.807707	-0.336288	
6500.809234	-0.379637	
6500.810815	-0.319816	
6500.812309	-0.323148	
6500.813922	-0.306172	
6500.815417	-0.390388	
6500.816969	-0.307638	
6500.818474	-0.347168	
6500.819964	-0.332400	
6500.821553	-0.344602	
6500.823045	-0.384837	
6500.824627	-0.342862	
6500.826119	-0.328924	
6500.827755	-0.363749	
6500.829279	-0.327881	
6500.830918	-0.341944	
6500.832396	-0.389216	
6500.834023	-0.306966	
6500.835502	-0.410425	
6500.837145	-0.311796	
6500.838650	-0.429592	
6500.840282	-0.367789	
6500.841791	-0.507052	
6500.843386	-0.422337	
6500.844910	-0.490206	
6500.846482	-0.415352	
6500.848024	-0.450507	
6500.849523	-0.432488	
6500.851184	-0.451880	
6500.852672	-0.510025	
6500.854291	-0.535198	
6500.855807	-0.546989	
6500.857436	-0.534493	
6500.858923	-0.615305	
6500.860570	-0.554780	
6500.862050	-0.647629	
6500.863697	-0.563622	
6500.865176	-0.691654	
6500.866795	-0.594233	
6500.868291	-0.711010	
6500.869889	-0.641393	
6500.871430	-0.774444	
6500.872932	-0.688718	
6500.874565	-0.755507	
6500.876059	-0.776547	
6500.877681	-0.779790	
6500.879199	-0.827791	
6500.880843	-0.806155	
6500.882322	-0.898835	
6500.883975	-0.834349	
6500.885442	-0.934014	
6500.887070	-0.893239	
6500.888547	-1.025425	
6500.890173	-0.920636	
6500.891666	-1.025207	
6500.893248	-1.016562	
6500.894796	-1.111453	
6500.896332	-1.031709	
6500.897920	-1.145884	
6500.899499	-1.004586	
6500.901107	-1.151813	
6500.902662	-1.061128	
6500.904303	-1.179798	
6500.905820	-1.155314	
6500.907508	-1.234724	
6500.908984	-1.207154	
6500.910709	-1.257089	
6500.912195	-1.267446	
6500.913905	-1.224988	
6500.915397	-1.307802	
6500.917120	-1.281726	
6500.918602	-1.374313	
6500.920298	-1.317490	
6500.921782	-1.415712	
6500.923480	-1.280844	
6500.924964	-1.446167	
6500.926629	-1.317357	
6500.928156	-1.453965	
6500.929783	-1.348846	
6500.931334	-1.480117	
6500.932926	-1.397392	
6500.934513	-1.498011	
6500.936072	-1.415608	
6500.937682	-1.497347	
6500.939222	-1.460004	
6500.940879	-1.499377	
6500.942376	-1.495236	
6500.944070	-1.496351	
6500.945555	-1.504388	
6500.947291	-1.496754	
6500.948764	-1.508155	
6500.950477	-1.505995	
6500.951959	-1.509306	
6500.953659	-1.509012	
6500.955143	-1.509395	
6500.956835	-1.509262	
6500.958325	-1.509480	
6500.959979	-1.509367	
6500.961500	-1.509387	
6500.963135	-1.509319	
6500.964694	-1.509423	
6500.966312	-1.509359	
6500.967886	-1.509504	
6500.969472	-1.509500	
6500.971083	-1.509496	
6500.972629	-1.509371	
6500.974248	-1.509552	
6500.975741	-1.509480	
6500.977448	-1.509484	
6500.979018	-1.509383	
6500.980708	-1.509528	
6500.982262	-1.509520	
6500.983969	-1.509476	
6500.985535	-1.509548	
6500.987214	-1.509464	
6500.988763	-1.509516	
6500.990485	-1.509609	
6500.992000	-1.509484	
6500.993786	-1.509403	
6500.995265	-1.509447	
6500.997046	-1.509532	
6500.998533	-1.509524	
6501.000293	-1.509439	
6501.001774	-1.509516	
6501.003558	-1.509524	
6501.005048	-1.509480	
6501.006837	-1.509468	
6501.008319	-1.509447	
6501.010073	-1.509508	
6501.011574	-1.509544	
6501.013294	-1.509452	
6501.014815	-1.509504	
6501.016536	-1.509363	
6501.018085	-1.509512	
6501.019804	-1.509391	
6501.021345	-1.509520	
6501.023040	-1.509476	
6501.024588	-1.509609	
6501.026260	-1.509435	
6501.027845	-1.509556	
6501.029505	-1.509512	
6501.031089	-1.509552	
6501.032715	-1.509423	
6501.034322	-1.509544	
6501.035959	-1.509504	
6501.037572	-1.509605	
6501.039179	-1.509411	
6501.040841	-1.509564	
6501.042437	-1.509435	
6501.044118	-1.509617	
6501.045701	-1.509464	
6501.047400	-1.509605	
6501.048983	-1.509371	
6501.050669	-1.509601	
6501.052243	-1.509492	
6501.053944	-1.509580	
6501.055499	-1.509609	
6501.057221	-1.509580	
6501.058760	-1.509504	
6501.060475	-1.509560	
6501.061980	-1.509488	
6501.063736	-1.509568	
6501.065217	-1.509512	
6501.066980	-1.509524	
6501.068470	-1.509528	
6501.070261	-1.509572	
6501.071737	-1.509568	
6501.073507	-1.509516	
6501.074983	-1.509536	
6501.076730	-1.509504	
6501.078232	-1.509568	
6501.079952	-1.509580	
6501.081476	-1.509484	
6501.083178	-1.509568	
6501.084725	-1.509621	
6501.086403	-1.509580	
6501.087949	-1.509540	
6501.089644	-1.509460	
6501.091213	-1.509673	
6501.092893	-1.509504	
6501.094468	-1.509633	
6501.096123	-1.509443	
6501.097722	-1.509613	
6501.099369	-1.509456	
6501.100974	-1.509580	
6501.102595	-1.509431	
6501.104224	-1.509649	
6501.105817	-1.509375	
6501.107491	-1.509596	
6501.109063	-1.509443	
6501.110759	-1.509528	
6501.112336	-1.509476	
6501.114034	-1.509592	
6501.115599	-1.509476	
6501.117274	-1.509516	
6501.118818	-1.509480	
6501.120521	-1.509592	
6501.122053	-1.509452	
6501.123783	-1.509520	
6501.125267	-1.509516	
6501.127037	-1.509588	
6501.128515	-1.509544	
6501.130286	-1.509560	
6501.131777	-1.509548	
6501.133549	-1.509560	
6501.135041	-1.509560	
6501.136838	-1.509552	
6501.138317	-1.509504	
6501.140074	-1.509504	
6501.141569	-1.509552	
6501.143301	-1.509468	
6501.144813	-1.509536	
6501.146538	-1.509512	
6501.148069	-1.509584	
6501.149796	-1.509395	
6501.151334	-1.509564	
6501.153011	-1.509504	
6501.154566	-1.509560	
6501.156250	-1.509443	
6501.157824	-1.509592	
6501.159487	-1.509492	
6501.161082	-1.509544	
6501.162712	-1.509520	
6501.164322	-1.509468	
6501.165962	-1.509375	
6501.167584	-1.509540	
6501.169208	-1.509359	
6501.170877	-1.509560	
6501.172466	-1.509379	
6501.174139	-1.509564	
6501.175720	-1.509419	
6501.177400	-1.509556	
6501.178989	-1.509512	
6501.180654	-1.509613	
6501.182225	-1.509363	
6501.183933	-1.509419	
6501.185483	-1.509427	
6501.187206	-1.509496	
6501.188749	-1.509456	
6501.190452	-1.509532	
6501.191945	-1.509468	
6501.193708	-1.509391	
6501.195194	-1.509391	
6501.196971	-1.509355	
6501.198463	-1.508718	
6501.200258	-1.498200	
6501.201744	-1.471372	
6501.203522	-1.383837	
6501.205002	-1.366910	
6501.206764	-1.223219	
6501.208258	-1.225539	
6501.209998	-1.061047	
6501.211519	-1.099070	
6501.213258	-0.862149	
6501.214783	-0.962696	
6501.216497	-0.704408	
6501.218028	-0.781723	
6501.219729	-0.578015	
6501.221277	-0.672346	
6501.222964	-0.440146	
6501.224529	-0.548012	
6501.226198	-0.313343	
6501.227786	-0.404515	
6501.229445	-0.146844	
6501.231029	-0.267935	
6501.232675	-0.018901	
6501.234268	-0.112640	
6501.235889	0.102428	
6501.237547	0.004508	
6501.239146	0.203773	
6501.240812	0.156223	
6501.242392	0.350432	
6501.244058	0.263674	
6501.245640	0.444175	
6501.247323	0.442278	
6501.248879	0.574689	
6501.250594	0.570930	
6501.252134	0.702032	
6501.253848	0.700960	
6501.255346	0.803997	
6501.257095	0.836203	
6501.258603	0.933874	
6501.260333	0.969823	
6501.261816	1.048733	
6501.263607	1.178365	
6501.265084	1.191674	
6501.266873	1.295194	
6501.268351	1.305982	
6501.270140	1.458534	
6501.271624	1.430920	
6501.273341	1.587811	
6501.274850	1.541816	
6501.276582	1.722655	
6501.278111	1.659451	
6501.279840	1.743377	
6501.281374	1.743091	
6501.283068	1.743429	
6501.284620	1.743792	
6501.286313	1.744114	
6501.287879	1.743808	
6501.289576	1.743860	
6501.291145	1.743812	
6501.292804	1.743993	
6501.294395	1.743937	
6501.296056	1.744078	
6501.297644	1.743820	
6501.299280	1.744219	
6501.300909	1.743772	
6501.302516	1.744066	
6501.304179	1.743880	
6501.305771	1.744001	
6501.307437	1.743880	
6501.309041	1.743953	
6501.310699	1.743941	
6501.312275	1.744114	
6501.313950	1.743909	
6501.315506	1.744025	
6501.317210	1.743997	
6501.318757	1.744025	
6501.320471	1.744001	
6501.321982	1.744086	
6501.323741	1.743876	
6501.325227	1.744021	
6501.326983	1.743872	
6501.328479	1.744041	
6501.330251	1.744074	
6501.331726	1.743973	
6501.333507	1.744013	
6501.334980	1.743981	
6501.336732	1.744030	
6501.338227	1.743953	
6501.339979	1.743969	
6501.341499	1.744005	
6501.343241	1.744001	
6501.344754	1.743909	
6501.346470	1.744025	
6501.348009	1.743925	
6501.349704	1.744174	
6501.351261	1.743941	
6501.352943	1.744058	
6501.354521	1.743784	
6501.356207	1.744086	
6501.357773	1.743973	
6501.359433	1.743989	
6501.361037	1.743969	
6501.362549	1.743965	
6501.364132	1.743973	
6501.365630	1.743933	
6501.367192	1.743973	
6501.368693	1.743860	
6501.370239	1.744050	
6501.371748	1.743957	
6501.373235	1.743913	
6501.374834	1.743933	
6501.376386	1.743993	
6501.377969	1.743876	
6501.379459	1.744045	
6501.381121	1.743909	
6501.382617	1.743949	
6501.384253	1.743896	
6501.385780	1.743993	
6501.387410	1.743880	
6501.388902	1.744029	
6501.390567	1.743937	
6501.392041	1.743937	
6501.393695	1.744005	
6501.395177	1.743993	
6501.396808	1.743977	
6501.398286	1.743909	
6501.399890	1.744058	
6501.401414	1.743973	
6501.402957	1.744013	
6501.404560	1.744009	
6501.406050	1.744041	
6501.407671	1.743917	
6501.409194	1.743941	
6501.410849	1.743949	
6501.412332	1.743917	
6501.413973	1.743888	
6501.415449	1.743993	
6501.417096	1.744001	
6501.418571	1.743876	
6501.420211	1.743981	
6501.421697	1.743937	
6501.423291	1.743981	
6501.424821	1.743921	
6501.426362	1.743921	
6501.427962	1.743949	
6501.429445	1.744001	
6501.431087	1.743965	
6501.432584	1.743973	
6501.434220	1.743961	
6501.435745	1.743880	
6501.437391	1.743965	
6501.438864	1.744050	
6501.440503	1.744005	
6501.441983	1.743985	
6501.443621	1.743953	
6501.445113	1.743905	
6501.446716	1.744058	
6501.448232	1.744017	
6501.449783	1.743961	
6501.451325	1.743904	
6501.452933	1.744005	
6501.454519	1.743892	
6501.456108	1.743993	
6501.457688	1.743941	
6501.459235	1.744106	
6501.460864	1.743945	
6501.462362	1.744013	
6501.464059	1.743917	
6501.465545	1.743904	
6501.467276	1.743872	
6501.468744	1.743953	
6501.470481	1.743977	
6501.471965	1.743977	
6501.473657	1.744062	
6501.475143	1.743872	
6501.476854	1.743905	
6501.478337	1.743808	
6501.480033	1.744009	
6501.481537	1.743828	
6501.483195	1.744005	
6501.484729	1.743844	
6501.486378	1.743977	
6501.487929	1.743800	
6501.489532	1.743949	
6501.491105	1.743647	
6501.492681	1.743977	
6501.494291	1.743768	
6501.495825	1.743788	
6501.497493	1.743542	
6501.498966	1.743772	
6501.500687	1.743357	
6501.502162	1.743457	
6501.503892	1.741685	
6501.505372	1.740174	
6501.507070	1.734712	
6501.508555	1.697824	
6501.510267	1.735075	
6501.511761	1.601371	
6501.513485	1.697269	
6501.514962	1.519712	
6501.516648	1.657586	
6501.518148	1.475252	
6501.519799	1.610346	
6501.521326	1.435130	
6501.523036	1.560809	
6501.524571	1.368054	
6501.526264	1.531463	
6501.527830	1.306155	
6501.529461	1.508643	
6501.531057	1.305196	
6501.532702	1.455086	
6501.534289	1.262254	
6501.535929	1.431851	
6501.537545	1.236348	
6501.539179	1.380639	
6501.540850	1.224312	
6501.542428	1.313764	
6501.544102	1.173784	
6501.545700	1.314051	
6501.547364	1.182510	
6501.548954	1.289574	
6501.550609	1.211441	
6501.552172	1.268704	
6501.553889	1.151689	
6501.555432	1.210442	
6501.557153	1.150416	
6501.558695	1.176334	
6501.560426	1.118484	
6501.561931	1.142678	
6501.563681	1.144229	
6501.565167	1.115688	
6501.566968	1.143125	
6501.568442	1.094386	
6501.570229	1.113698	
6501.571708	1.050723	
6501.573497	1.096638	
6501.574976	1.033567	
6501.576743	1.063968	
6501.578239	0.988913	
6501.580019	1.081286	
6501.581519	0.940533	
6501.583263	1.027786	
6501.584776	0.913217	
6501.586484	1.018219	
6501.588014	0.849666	
6501.589717	0.982564	
6501.591262	0.777124	
6501.592955	0.940263	
6501.594528	0.748780	
6501.596206	0.954801	
6501.597780	0.737477	
6501.599448	0.930828	
6501.601018	0.702680	
6501.602673	0.859769	
6501.604287	0.624607	
6501.605907	0.803171	
6501.607526	0.627258	
6501.609133	0.753103	
6501.610795	0.576815	
6501.612400	0.703840	
6501.614043	0.562342	
6501.615626	0.676883	
6501.617321	0.542007	
6501.618876	0.610678	
6501.620596	0.502880	
6501.622148	0.557282	
6501.623848	0.487931	
6501.625395	0.506324	
6501.627106	0.472216	
6501.628642	0.485969	
6501.630385	0.453613	
6501.631864	0.406933	
6501.633648	0.409850	
6501.635126	0.409878	
6501.636915	0.407429	
6501.638391	0.365510	
6501.640172	0.356527	
6501.641650	0.259428	
6501.643419	0.374972	
6501.644910	0.260101	
6501.646647	0.368290	
6501.648164	0.228060	
6501.649903	0.357816	
6501.651424	0.216164	
6501.653149	0.327712	
6501.654678	0.163478	
6501.656375	0.329118	
6501.657941	0.131291	
6501.659641	0.300936	
6501.661195	0.101615	
6501.662873	0.303639	
6501.664445	0.089941	
6501.666103	0.281270	
6501.667685	0.103081	
6501.669327	0.277737	
6501.670951	0.093957	
6501.672576	0.260266	
6501.674205	0.062065	
6501.675811	0.230030	
6501.677467	0.098690	
6501.679058	0.239178	
6501.680748	0.069529	
6501.682324	0.203161	
6501.683999	0.115287	
6501.685563	0.211342	
6501.687261	0.093764	
6501.688821	0.176437	
6501.690493	0.103734	
6501.692047	0.152714	
6501.693772	0.115210	
6501.695287	0.157113	
6501.697034	0.166531	
6501.698516	0.167647	
6501.700294	0.159896	
6501.701782	0.154845	
6501.703561	0.188320	
6501.705043	0.130937	
6501.706813	0.198097	
6501.708301	0.158918	
6501.710085	0.195152	
6501.711572	0.110332	
6501.713324	0.218500	
6501.714818	0.103448	
6501.716535	0.226702	
6501.718055	0.070170	
6501.719773	0.208023	
6501.721315	0.058161	
6501.723047	0.210899	
6501.724589	0.001507	
6501.726270	0.212490	
6501.727830	0.011276	
6501.729499	0.234231	
6501.731073	0.060425	
6501.732719	0.211930	
6501.734324	0.012516	
6501.735957	0.178306	
6501.737582	-0.009583	
6501.739199	0.163006	
6501.740833	-0.047759	
6501.742454	0.116250	
6501.744128	-0.020210	
6501.745702	0.110630	
6501.747384	-0.050180	
6501.748961	0.079793	
6501.750661	-0.041701	
6501.752240	0.028593	
6501.753913	-0.061504	
6501.755472	-0.005599	
6501.757186	-0.089823	
6501.758730	-0.037906	
6501.760453	-0.093022	
6501.761992	-0.091926	
6501.763717	-0.052533	
6501.765219	-0.088800	
6501.766975	-0.128000	
6501.768450	-0.108857	
6501.770232	-0.145172	
6501.771720	-0.190229	
6501.773494	-0.167352	
6501.774970	-0.205778	
6501.776750	-0.182897	
6501.778238	-0.288266	
6501.780005	-0.175328	
6501.781501	-0.271907	
6501.783235	-0.199208	
6501.784760	-0.297809	
6501.786497	-0.221634	
6501.788024	-0.341541	
6501.789745	-0.215849	
6501.791285	-0.363491	
6501.792989	-0.225706	
6501.794540	-0.412351	
6501.796230	-0.222532	
6501.797805	-0.396451	
6501.799467	-0.247979	
6501.801050	-0.419585	
6501.802699	-0.246259	
6501.804285	-0.478556	
6501.805935	-0.284544	
6501.807543	-0.465347	
6501.809165	-0.308509	
6501.810813	-0.455208	
6501.812404	-0.320602	
6501.814072	-0.458020	
6501.815657	-0.337017	
6501.817323	-0.428238	
6501.818900	-0.355970	
6501.820567	-0.449532	
6501.822126	-0.368390	
6501.823821	-0.436803	
6501.825371	-0.379830	
6501.827090	-0.415718	
6501.828614	-0.381683	
6501.830351	-0.384076	
6501.831839	-0.396564	
6501.833599	-0.408612	
6501.835088	-0.400395	
6501.836865	-0.389663	
6501.838342	-0.428641	
6501.840130	-0.378944	
6501.841611	-0.489706	
6501.843359	-0.392741	
6501.844857	-0.490158	
6501.846594	-0.362963	
6501.848111	-0.494601	
6501.849837	-0.374944	
6501.851362	-0.490037	
6501.853085	-0.366367	
6501.854626	-0.513586	
6501.856334	-0.368208	
6501.857887	-0.555735	
6501.859578	-0.379967	
6501.861144	-0.594523	
6501.862819	-0.379729	
6501.864401	-0.571248	
6501.866057	-0.405954	
6501.867654	-0.619036	
6501.869304	-0.432504	
6501.870899	-0.622049	
6501.872542	-0.467224	
6501.874170	-0.676592	
6501.875778	-0.505562	
6501.877444	-0.707723	
6501.879027	-0.585794	
6501.880698	-0.712505	
6501.882286	-0.624474	
6501.883936	-0.708883	
6501.885505	-0.657285	
6501.887183	-0.735265	
6501.888721	-0.738431	
6501.890431	-0.751096	
6501.891919	-0.876482	
6501.893490	-0.868751	
6501.895002	-0.904128	
6501.896495	-0.912019	
6501.898072	-0.958514	
6501.899577	-0.981995	
6501.901171	-0.985194	
6501.902665	-0.965918	
6501.904316	-1.036386	
6501.905829	-1.042823	
6501.907468	-1.090530	
6501.908948	-1.146045	
6501.910599	-1.142923	
6501.912076	-1.218945	
6501.913646	-1.178904	
6501.915126	-1.260409	
6501.916670	-1.234857	
6501.918184	-1.328495	
6501.919758	-1.232988	
6501.921299	-1.358962	
6501.922818	-1.311484	
6501.924466	-1.380485	
6501.925945	-1.406504	
6501.927583	-1.465821	
6501.929099	-1.468999	
6501.930752	-1.471094	
6501.932228	-1.506362	
6501.933874	-1.477862	
6501.935344	-1.508948	
6501.936991	-1.496678	
6501.938468	-1.509121	
6501.940107	-1.508299	
6501.941597	-1.509294	
6501.943178	-1.509246	
6501.944728	-1.509367	
6501.946262	-1.509310	
6501.947865	-1.509423	
6501.949358	-1.509310	
6501.951008	-1.509331	
6501.952495	-1.509459	
6501.954129	-1.509351	
6501.955606	-1.509431	
6501.957229	-1.509395	
6501.958705	-1.509472	
6501.960328	-1.509403	
6501.961808	-1.509548	
6501.963442	-1.509431	
6501.964938	-1.509488	
6501.966524	-1.509496	
6501.968062	-1.509528	
6501.969595	-1.509480	
6501.971205	-1.509532	
6501.972696	-1.509593	
6501.974329	-1.509536	
6501.975893	-1.509516	
6501.977507	-1.509391	
6501.979008	-1.509448	
6501.980699	-1.509568	
6501.982183	-1.509468	
6501.983915	-1.509540	
6501.985385	-1.509383	
6501.987115	-1.509544	
6501.988595	-1.509516	
6501.990301	-1.509584	
6501.991779	-1.509520	
6501.993493	-1.509480	
6501.994982	-1.509556	
6501.996678	-1.509512	
6501.998177	-1.509585	
6501.999850	-1.509496	
6502.001383	-1.509593	
6502.003004	-1.509460	
6502.004568	-1.509677	
6502.006187	-1.509488	
6502.007771	-1.509552	
6502.009368	-1.509520	
6502.010972	-1.509500	
6502.012522	-1.509435	
6502.014153	-1.509548	
6502.015641	-1.509504	
6502.017349	-1.509560	
6502.018824	-1.509524	
6502.020555	-1.509548	
6502.022028	-1.509548	
6502.023749	-1.509697	
6502.025233	-1.509524	
6502.026944	-1.509528	
6502.028426	-1.509556	
6502.030133	-1.509415	
6502.031625	-1.509516	
6502.033310	-1.509536	
6502.034805	-1.509613	
6502.036451	-1.509435	
6502.037979	-1.509540	
6502.039603	-1.509476	
6502.041165	-1.509613	
6502.042755	-1.509516	
6502.044348	-1.509601	
6502.045897	-1.509472	
6502.047525	-1.509564	
6502.049129	-1.509415	
6502.050796	-1.509504	
6502.052384	-1.509460	
6502.054042	-1.509544	
6502.055635	-1.509435	
6502.057297	-1.509560	
6502.058875	-1.509528	
6502.060569	-1.509605	
6502.062117	-1.509492	
6502.063845	-1.509637	
6502.065383	-1.509572	
6502.067089	-1.509552	
6502.068620	-1.509552	
6502.070360	-1.509496	
6502.071872	-1.509411	
6502.073641	-1.509568	
6502.075116	-1.509556	
6502.076902	-1.509544	
6502.078388	-1.509556	
6502.080156	-1.509576	
6502.081635	-1.509524	
6502.083410	-1.509528	
6502.084891	-1.509439	
6502.086665	-1.509512	
6502.088173	-1.509540	
6502.089945	-1.509504	
6502.091449	-1.509617	
6502.093168	-1.509448	
6502.094692	-1.509532	
6502.096407	-1.509488	
6502.097947	-1.509548	
6502.099636	-1.509605	
6502.101197	-1.509576	
6502.102878	-1.509444	
6502.104449	-1.509613	
6502.106115	-1.509452	
6502.107695	-1.509536	
6502.109342	-1.509492	
6502.110928	-1.509629	
6502.112563	-1.509459	
6502.114183	-1.509617	
6502.115802	-1.509476	
6502.117464	-1.509564	
6502.119057	-1.509520	
6502.120681	-1.509593	
6502.122267	-1.509427	
6502.123917	-1.509657	
6502.125493	-1.509488	
6502.127195	-1.509588	
6502.128736	-1.509536	
6502.130449	-1.509584	
6502.132002	-1.509532	
6502.133695	-1.509516	
6502.135205	-1.509500	
6502.136971	-1.509544	
6502.138460	-1.509572	
6502.140248	-1.509588	
6502.141728	-1.509508	
6502.143507	-1.509488	
6502.144990	-1.509601	
6502.146759	-1.509488	
6502.148247	-1.509548	
6502.150020	-1.509423	
6502.151518	-1.509524	
6502.153277	-1.509512	
6502.154782	-1.509605	
6502.156518	-1.509504	
6502.158038	-1.509540	
6502.159771	-1.509528	
6502.161306	-1.509488	
6502.163006	-1.509472	
6502.164546	-1.509568	
6502.166231	-1.509488	
6502.167801	-1.509593	
6502.169485	-1.509399	
6502.171046	-1.509576	
6502.172689	-1.509540	
6502.174278	-1.509605	
6502.175925	-1.509363	
6502.177545	-1.509548	
6502.179164	-1.509379	
6502.180794	-1.509564	
6502.182407	-1.509504	
6502.184055	-1.509512	
6502.185654	-1.509431	
6502.187311	-1.509605	
6502.188898	-1.509411	
6502.190598	-1.509552	
6502.192160	-1.509492	
6502.193870	-1.509516	
6502.195419	-1.509464	
6502.197108	-1.509528	
6502.198650	-1.509363	
6502.200376	-1.509351	
6502.201884	-1.509516	
6502.203639	-1.509435	
6502.205114	-1.509415	
6502.206879	-1.509166	
6502.208358	-1.507228	
6502.210146	-1.487848	
6502.211623	-1.474429	
6502.213358	-1.373403	
6502.214845	-1.387571	
6502.216589	-1.219054	
6502.218102	-1.202369	
6502.219843	-1.044942	
6502.221367	-1.089370	
6502.223094	-0.909441	
6502.224623	-0.949870	
6502.226331	-0.753251	
6502.227876	-0.851385	
6502.229577	-0.597448	
6502.231138	-0.730753	
6502.232832	-0.445830	
6502.234397	-0.585899	
6502.236064	-0.317705	
6502.237653	-0.438925	
6502.239303	-0.180287	
6502.240904	-0.251435	
6502.242528	-0.031106	
6502.244148	-0.137059	
6502.245763	0.095036	
6502.247436	0.067708	
6502.249038	0.215657	
6502.250697	0.180965	
6502.252297	0.356865	
6502.253963	0.311970	
6502.255534	0.427530	
6502.257227	0.418426	
6502.258790	0.540681	
6502.260491	0.547083	
6502.262048	0.658655	
6502.263727	0.700119	
6502.265279	0.769305	
6502.267014	0.807215	
6502.268511	0.899597	
6502.270271	0.907806	
6502.271756	0.995181	
6502.273556	1.055428	
6502.275038	1.110644	
6502.276801	1.176713	
6502.278286	1.186470	
6502.280067	1.310215	
6502.281550	1.294541	
6502.283324	1.439766	
6502.284808	1.426477	
6502.286554	1.541087	
6502.288065	1.474982	
6502.289792	1.659334	
6502.291319	1.588516	
6502.293036	1.738716	
6502.294581	1.705313	
6502.296290	1.743977	
6502.297833	1.743038	
6502.299511	1.744001	
6502.301075	1.743598	
6502.302745	1.743901	
6502.304319	1.743635	
6502.305965	1.743977	
6502.307569	1.743683	
6502.309187	1.744029	
6502.310820	1.743731	
6502.312450	1.744142	
6502.314090	1.743909	
6502.315725	1.744078	
6502.317401	1.743868	
6502.318980	1.743985	
6502.320669	1.743756	
6502.322242	1.743973	
6502.323941	1.743832	
6502.325513	1.743981	
6502.327209	1.743885	
6502.328777	1.743913	
6502.330498	1.743844	
6502.332040	1.744082	
6502.333745	1.743957	
6502.335294	1.744033	
6502.337026	1.744025	
6502.338539	1.744053	
6502.340281	1.743921	
6502.341765	1.743945	
6502.343525	1.743937	
6502.345012	1.744033	
6502.346792	1.744045	
6502.348276	1.744001	
6502.350035	1.744062	
6502.351518	1.743896	
6502.353250	1.744021	
6502.354754	1.743888	
6502.356507	1.744017	
6502.358028	1.743917	
6502.359772	1.744118	
6502.361290	1.743977	
6502.362989	1.744086	
6502.364532	1.743925	
6502.366219	1.744094	
6502.367774	1.743917	
6502.369440	1.744013	
6502.371008	1.743913	
6502.372656	1.744158	
6502.374250	1.743888	
6502.375887	1.744074	
6502.377494	1.743957	
6502.379118	1.744138	
6502.380760	1.743953	
6502.382354	1.744118	
6502.384025	1.743913	
6502.385602	1.744094	
6502.387274	1.743957	
6502.388837	1.743981	
6502.390522	1.743864	
6502.392084	1.744090	
6502.393781	1.743961	
6502.395352	1.744050	
6502.397064	1.744005	
6502.398603	1.744058	
6502.400324	1.744114	
6502.401809	1.744017	
6502.403578	1.744061	
6502.405055	1.744025	
6502.406831	1.743909	
6502.408319	1.743997	
6502.410096	1.743961	
6502.411568	1.743929	
6502.413355	1.743993	
6502.414836	1.744021	
6502.416591	1.744090	
6502.418096	1.743905	
6502.419813	1.744041	
6502.421330	1.743933	
6502.423056	1.744150	
6502.424591	1.744017	
6502.426291	1.743937	
6502.427837	1.743909	
6502.429524	1.744038	
6502.431116	1.743993	
6502.432614	1.744033	
6502.434167	1.743880	
6502.435702	1.743812	
6502.437289	1.743989	
6502.438765	1.743812	
6502.440347	1.744017	
6502.441837	1.743945	
6502.443407	1.744017	
6502.444902	1.743880	
6502.446496	1.743893	
6502.448015	1.743957	
6502.449556	1.743884	
6502.451150	1.743913	
6502.452644	1.744033	
6502.454295	1.743941	
6502.455803	1.743977	
6502.457426	1.743904	
6502.458948	1.743925	
6502.460594	1.743872	
6502.462070	1.743856	
6502.463701	1.743965	
6502.465184	1.743880	
6502.466828	1.743961	
6502.468305	1.743872	
6502.469930	1.743929	
6502.471442	1.743852	
6502.473006	1.744009	
6502.474572	1.743949	
6502.476072	1.744033	
6502.477727	1.743949	
6502.479214	1.743945	
6502.480845	1.743892	
6502.482370	1.743929	
6502.484008	1.743780	
6502.485485	1.743961	
6502.487144	1.743888	
6502.488617	1.743856	
6502.490262	1.743941	
6502.491748	1.743904	
6502.493382	1.743989	
6502.494876	1.743860	
6502.496458	1.743989	
6502.498019	1.743953	
6502.499558	1.743957	
6502.501149	1.743808	
6502.502642	1.743969	
6502.504293	1.743763	
6502.505793	1.743868	
6502.507456	1.743792	
6502.508964	1.743953	
6502.510671	1.743755	
6502.512161	1.743800	
6502.513807	1.743925	
6502.515294	1.743635	
6502.516943	1.743832	
6502.518425	1.743586	
6502.520145	1.743534	
6502.521625	1.743385	
6502.523304	1.743683	
6502.524798	1.743014	
6502.526469	1.743566	
6502.527992	1.726164	
6502.529626	1.732863	
6502.531187	1.696608	
6502.532801	1.718163	
6502.534385	1.636558	
6502.535953	1.679133	
6502.537567	1.509489	
6502.539111	1.553051	
6502.540779	1.436652	
6502.542273	1.487341	
6502.543962	1.419987	
6502.545448	1.433373	
6502.547181	1.394383	
6502.548652	1.343465	
6502.550388	1.353601	
6502.551870	1.293208	
6502.553585	1.294364	
6502.555067	1.221331	
6502.556774	1.310336	
6502.558264	1.141804	
6502.559946	1.225742	
6502.561451	1.088988	
6502.563091	1.215212	
6502.564618	1.037732	
6502.566245	1.181434	
6502.567793	1.063195	
6502.569391	1.133530	
6502.570982	1.020193	
6502.572551	1.080376	
6502.574169	0.925914	
6502.575713	1.044431	
6502.577397	0.975083	
6502.578874	1.021151	
6502.580591	0.936561	
6502.582066	0.971994	
6502.583793	0.951127	
6502.585346	0.995229	
6502.587045	0.934474	
6502.588583	0.944319	
6502.590304	0.911424	
6502.591807	0.939969	
6502.593574	0.906070	
6502.595051	0.908894	
6502.596836	0.948287	
6502.598322	0.870343	
6502.600069	0.904201	
6502.601542	0.884035	
6502.603296	0.885522	
6502.604786	0.768600	
6502.606535	0.896576	
6502.608044	0.773526	
6502.609786	0.895641	
6502.611308	0.736780	
6502.613039	0.898255	
6502.614573	0.719249	
6502.616273	0.883294	
6502.617810	0.690994	
6502.619496	0.849944	
6502.621059	0.671948	
6502.622737	0.831212	
6502.624316	0.628140	
6502.625976	0.805689	
6502.627554	0.628438	
6502.629194	0.800065	
6502.630804	0.628201	
6502.632423	0.770038	
6502.634064	0.603479	
6502.635661	0.726327	
6502.637322	0.554732	
6502.638920	0.663843	
6502.640577	0.543030	
6502.642156	0.660093	
6502.643853	0.544714	
6502.645392	0.610597	
6502.647109	0.541415	
6502.648646	0.545536	
6502.650355	0.508749	
6502.651883	0.514477	
6502.653623	0.476107	
6502.655127	0.460735	
6502.656871	0.468317	
6502.658356	0.427530	
6502.660138	0.433613	
6502.661619	0.390369	
6502.663387	0.423969	
6502.664876	0.355544	
6502.666645	0.430849	
6502.668141	0.350492	
6502.669893	0.379927	
6502.671408	0.261213	
6502.673165	0.355951	
6502.674679	0.235065	
6502.676404	0.343677	
6502.677931	0.176836	
6502.679636	0.363335	
6502.681170	0.188804	
6502.682864	0.327096	
6502.684425	0.162857	
6502.686093	0.322806	
6502.687665	0.095741	
6502.689322	0.281580	
6502.690910	0.100257	
6502.692558	0.269032	
6502.694159	0.084261	
6502.695794	0.252532	
6502.697425	0.107138	
6502.699051	0.224487	
6502.700718	0.069847	
6502.702309	0.210524	
6502.703976	0.036336	
6502.705571	0.183833	
6502.707228	0.051092	
6502.708802	0.156412	
6502.710497	0.048183	
6502.712054	0.165746	
6502.713741	0.086545	
6502.715288	0.103154	
6502.717012	0.065336	
6502.718530	0.117559	
6502.720269	0.086517	
6502.721767	0.072808	
6502.723556	0.092881	
6502.725032	0.064139	
6502.726817	0.075757	
6502.728296	0.034757	
6502.730073	0.112354	
6502.731555	0.050314	
6502.733319	0.133902	
6502.734819	0.035228	
6502.736582	0.128383	
6502.738082	0.020956	
6502.739820	0.132021	
6502.741338	-0.028637	
6502.743058	0.154446	
6502.744585	0.008569	
6502.746306	0.161741	
6502.747844	-0.011509	
6502.749536	0.161463	
6502.751089	-0.018433	
6502.752778	0.182246	
6502.754343	-0.023884	
6502.756025	0.155357	
6502.757602	-0.027042	
6502.759277	0.153342	
6502.760886	-0.035928	
6502.762518	0.173980	
6502.764130	-0.023485	
6502.765752	0.134466	
6502.767374	0.013290	
6502.768982	0.132633	
6502.770627	0.006337	
6502.772215	0.089332	
6502.773896	-0.013253	
6502.775469	0.044562	
6502.777179	-0.055079	
6502.778744	0.064413	
6502.780446	-0.012093	
6502.782001	0.021693	
6502.783713	-0.032903	
6502.785268	0.000589	
6502.786993	-0.060489	
6502.788507	-0.040468	
6502.790239	-0.074113	
6502.791719	-0.089179	
6502.793504	-0.055651	
6502.794988	-0.086911	
6502.796763	-0.039868	
6502.798252	-0.124471	
6502.800043	-0.060151	
6502.801524	-0.131560	
6502.803301	-0.078286	
6502.804796	-0.179993	
6502.806536	-0.094359	
6502.808043	-0.235245	
6502.809764	-0.105763	
6502.811286	-0.273950	
6502.813004	-0.119165	
6502.814554	-0.285974	
6502.816253	-0.136274	
6502.817803	-0.333710	
6502.819487	-0.133728	
6502.821042	-0.330511	
6502.822729	-0.158111	
6502.824299	-0.333230	
6502.825930	-0.180847	
6502.827535	-0.363213	
6502.829161	-0.188316	
6502.830785	-0.347539	
6502.832421	-0.214411	
6502.834037	-0.385756	
6502.835645	-0.247741	
6502.837325	-0.401518	
6502.838899	-0.291283	
6502.840579	-0.436468	
6502.842155	-0.311050	
6502.843839	-0.406868	
6502.845411	-0.340199	
6502.847101	-0.384128	
6502.848650	-0.369912	
6502.850346	-0.384293	
6502.851867	-0.383979	
6502.853606	-0.417954	
6502.855086	-0.416971	
6502.856871	-0.430321	
6502.858358	-0.427501	
6502.860131	-0.430470	
6502.861617	-0.448730	
6502.863382	-0.416290	
6502.864877	-0.455949	
6502.866661	-0.412334	
6502.868135	-0.495882	
6502.869904	-0.403577	
6502.871400	-0.497739	
6502.873131	-0.420174	
6502.874653	-0.548157	
6502.876375	-0.393695	
6502.877914	-0.511016	
6502.879640	-0.391017	
6502.881176	-0.569230	
6502.882879	-0.361151	
6502.884433	-0.554667	
6502.886125	-0.401514	
6502.887697	-0.574539	
6502.889382	-0.395270	
6502.890968	-0.621090	
6502.892629	-0.416959	
6502.894216	-0.583377	
6502.895857	-0.408516	
6502.897467	-0.615362	
6502.899076	-0.454503	
6502.900709	-0.599655	
6502.902307	-0.461685	
6502.903971	-0.587107	
6502.905544	-0.506327	
6502.907228	-0.615446	
6502.908808	-0.537696	
6502.910491	-0.630814	
6502.912047	-0.559219	
6502.913720	-0.597303	
6502.915273	-0.595047	
6502.916990	-0.668052	
6502.918509	-0.647911	
6502.920248	-0.693036	
6502.921729	-0.700943	
6502.923507	-0.724271	
6502.924991	-0.735684	
6502.926760	-0.739567	
6502.928248	-0.796169	
6502.930033	-0.726987	
6502.931510	-0.844617	
6502.933267	-0.760728	
6502.934759	-0.884127	
6502.936524	-0.807891	
6502.938028	-0.950933	
6502.939743	-0.824923	
6502.941266	-0.990008	
6502.943001	-0.893324	
6502.944541	-1.065434	
6502.946231	-0.933196	
6502.947769	-1.137327	
6502.949455	-0.974317	
6502.951010	-1.166887	
6502.952686	-1.021207	
6502.954275	-1.209660	
6502.955928	-1.063428	
6502.957522	-1.266205	
6502.959145	-1.144147	
6502.960762	-1.330816	
6502.962391	-1.185152	
6502.964026	-1.347449	
6502.965633	-1.257967	
6502.967287	-1.408151	
6502.968761	-1.489205	
6502.970345	-1.465567	
6502.971832	-1.505270	
6502.973400	-1.502893	
6502.974896	-1.508158	
6502.976506	-1.501693	
6502.978039	-1.508988	
6502.979526	-1.508908	
6502.981124	-1.509153	
6502.982623	-1.509049	
6502.984298	-1.509202	
6502.985778	-1.509327	
6502.987414	-1.509371	
6502.988939	-1.509444	
6502.990580	-1.509468	
6502.992057	-1.509480	
6502.993704	-1.509443	
6502.995186	-1.509508	
6502.996822	-1.509379	
6502.998304	-1.509560	
6502.999948	-1.509492	
6503.001457	-1.509500	
6503.003024	-1.509496	
6503.004579	-1.509472	
6503.006117	-1.509391	
6503.007730	-1.509580	
6503.009219	-1.509512	
6503.010867	-1.509524	
6503.012372	-1.509403	
6503.014035	-1.509460	
6503.015516	-1.509448	
6503.017151	-1.509576	
6503.018626	-1.509556	
6503.020257	-1.509456	
6503.021738	-1.509588	
6503.023363	-1.509415	
6503.024865	-1.509556	
6503.026464	-1.509452	
6503.027989	-1.509556	
6503.029537	-1.509472	
6503.031136	-1.509492	
6503.032617	-1.509588	
6503.034273	-1.509500	
6503.035762	-1.509444	
6503.037395	-1.509528	
6503.038915	-1.509548	
6503.040543	-1.509556	
6503.042029	-1.509520	
6503.043668	-1.509476	
6503.045168	-1.509508	
6503.046811	-1.509568	
6503.048295	-1.509540	
6503.049939	-1.509520	
6503.051436	-1.509588	
6503.053020	-1.509540	
6503.054558	-1.509500	
6503.056091	-1.509520	
6503.057684	-1.509508	
6503.059265	-1.509456	
6503.060883	-1.509532	
6503.062418	-1.509464	
6503.064052	-1.509548	
6503.065551	-1.509439	
6503.067254	-1.509593	
6503.068728	-1.509476	
6503.070444	-1.509584	
6503.071917	-1.509459	
6503.073629	-1.509589	
6503.075118	-1.509560	
6503.076817	-1.509447	
6503.078311	-1.509524	
6503.080050	-1.509520	
6503.081533	-1.509653	
6503.083220	-1.509568	
6503.084711	-1.509613	
6503.086371	-1.509468	
6503.087898	-1.509637	
6503.089522	-1.509447	
6503.091091	-1.509552	
6503.092683	-1.509504	
6503.094275	-1.509528	
6503.095831	-1.509564	
6503.097453	-1.509544	
6503.098982	-1.509492	
6503.100647	-1.509629	
6503.102121	-1.509593	
6503.103834	-1.509596	
6503.105308	-1.509629	
6503.107026	-1.509568	
6503.108511	-1.509520	
6503.110206	-1.509564	
6503.111698	-1.509496	
6503.113396	-1.509585	
6503.114881	-1.509552	
6503.116567	-1.509500	
6503.118059	-1.509588	
6503.119725	-1.509532	
6503.121251	-1.509560	
6503.122896	-1.509443	
6503.124461	-1.509584	
6503.126071	-1.509496	
6503.127656	-1.509480	
6503.129305	-1.509496	
6503.130898	-1.509605	
6503.132554	-1.509387	
6503.134145	-1.509637	
6503.135774	-1.509496	
6503.137381	-1.509536	
6503.139009	-1.509468	
6503.140686	-1.509673	
6503.142266	-1.509520	
6503.143937	-1.509512	
6503.145527	-1.509480	
6503.147204	-1.509564	
6503.148781	-1.509468	
6503.150441	-1.509552	
6503.152015	-1.509488	
6503.153732	-1.509447	
6503.155273	-1.509512	
6503.156994	-1.509572	
6503.158525	-1.509431	
6503.160245	-1.509633	
6503.161749	-1.509480	
6503.163498	-1.509556	
6503.164990	-1.509415	
6503.166783	-1.509427	
6503.168263	-1.509540	
6503.170062	-1.509544	
6503.171545	-1.509484	
6503.173327	-1.509508	
6503.174810	-1.509516	
6503.176575	-1.509540	
6503.178073	-1.509464	
6503.179830	-1.509359	
6503.181329	-1.509512	
6503.183071	-1.509456	
6503.184592	-1.509528	
6503.186311	-1.509375	
6503.187848	-1.509516	
6503.189554	-1.509476	
6503.191102	-1.509548	
6503.192794	-1.509496	
6503.194359	-1.509621	
6503.196044	-1.509528	
6503.197600	-1.509472	
6503.199246	-1.509443	
6503.200822	-1.509584	
6503.202473	-1.509371	
6503.204096	-1.509609	
6503.205706	-1.509520	
6503.207335	-1.509596	
6503.208930	-1.509435	
6503.210589	-1.509516	
6503.212176	-1.509435	
6503.213839	-1.509552	
6503.215405	-1.509484	
6503.217114	-1.509556	
6503.218656	-1.509375	
6503.220380	-1.509560	
6503.221923	-1.509431	
6503.223629	-1.509568	
6503.225149	-1.509448	
6503.226887	-1.509508	
6503.228392	-1.509452	
6503.230168	-1.509488	
6503.231645	-1.509472	
6503.233447	-1.509387	
6503.234928	-1.509339	
6503.236709	-1.509484	
6503.238183	-1.509476	
6503.239931	-1.509443	
6503.241416	-1.509415	
6503.243197	-1.509456	
6503.244699	-1.509302	
6503.246456	-1.509423	
6503.247973	-1.508916	
6503.249685	-1.492114	
6503.251211	-1.502575	
6503.252919	-1.365910	
6503.254466	-1.473467	
6503.256160	-1.216000	
6503.257718	-1.343195	
6503.259409	-1.081708	
6503.260961	-1.222953	
6503.262621	-0.939702	
6503.264206	-1.012196	
6503.265844	-0.808492	
6503.267433	-0.879330	
6503.269055	-0.681603	
6503.270676	-0.806308	
6503.272282	-0.567026	
6503.273947	-0.672564	
6503.275536	-0.448646	
6503.277196	-0.475861	
6503.278791	-0.323454	
6503.280458	-0.358806	
6503.282040	-0.179115	
6503.283746	-0.178462	
6503.285295	-0.060775	
6503.286994	-0.068046	
6503.288523	0.056167	
6503.290263	0.072558	
6503.291780	0.160158	
6503.293530	0.199990	
6503.295017	0.279143	
6503.296807	0.388343	
6503.298285	0.382469	
6503.300057	0.500326	
6503.301544	0.527879	
6503.303328	0.631822	
6503.304811	0.626134	
6503.306558	0.713263	
6503.308055	0.722214	
6503.309813	0.874234	
6503.311318	0.778260	
6503.313066	1.039710	
6503.314581	0.916476	
6503.316311	1.121191	
6503.317845	1.060573	
6503.319555	1.232352	
6503.321103	1.120909	
6503.322812	1.342402	
6503.324360	1.223949	
6503.326050	1.462422	
6503.327608	1.320166	
6503.329260	1.570244	
6503.330837	1.463227	
6503.332484	1.673381	
6503.334092	1.581048	
6503.335724	1.724480	
6503.337358	1.716037	
6503.338985	1.737415	
6503.340625	1.741890	
6503.342227	1.743900	
6503.343872	1.743131	
6503.345465	1.744045	
6503.347158	1.743671	
6503.348722	1.744066	
6503.350407	1.743868	
6503.351952	1.744086	
6503.353658	1.743763	
6503.355208	1.743977	
6503.356900	1.743856	
6503.358419	1.744017	
6503.360176	1.743909	
6503.361658	1.743989	
6503.363444	1.744058	
6503.364923	1.743973	
6503.366722	1.744009	
6503.368209	1.743780	
6503.369985	1.744070	
6503.371474	1.743872	
6503.373257	1.743993	
6503.374741	1.743941	
6503.376485	1.743912	
6503.377984	1.744042	
6503.379709	1.744038	
6503.381226	1.744005	
6503.382949	1.744046	
6503.384482	1.743909	
6503.386188	1.744021	
6503.387742	1.743981	
6503.389441	1.744134	
6503.391006	1.743997	
6503.392698	1.744013	
6503.394265	1.743844	
6503.395920	1.744118	
6503.397504	1.743864	
6503.399140	1.744142	
6503.400745	1.743824	
6503.402371	1.744162	
6503.404016	1.743905	
6503.405649	1.744050	
6503.407289	1.743913	
6503.408901	1.744118	
6503.410569	1.743969	
6503.412146	1.744154	
6503.413837	1.743961	
6503.415413	1.744078	
6503.417126	1.743953	
6503.418698	1.744114	
6503.420377	1.743921	
6503.421925	1.744033	
6503.423624	1.744110	
6503.425150	1.743977	
6503.426881	1.743993	
6503.428359	1.744054	
6503.430154	1.744017	
6503.431631	1.744182	
6503.433407	1.744045	
6503.434891	1.743993	
6503.436667	1.743949	
6503.438147	1.743985	
6503.439941	1.744114	
6503.441424	1.743884	
6503.443175	1.744066	
6503.444670	1.743993	
6503.446411	1.744098	
6503.447926	1.744090	
6503.449666	1.744001	
6503.451204	1.743977	
6503.452934	1.744066	
6503.454472	1.744001	
6503.456167	1.744037	
6503.457722	1.743909	
6503.459391	1.744086	
6503.460960	1.743933	
6503.462644	1.744146	
6503.464238	1.743848	
6503.465905	1.744098	
6503.467488	1.743901	
6503.469137	1.743993	
6503.470732	1.743985	
6503.472359	1.744279	
6503.473994	1.743912	
6503.475591	1.744170	
6503.477269	1.743816	
6503.478742	1.743900	
6503.480318	1.743957	
6503.481805	1.743937	
6503.483367	1.743912	
6503.484855	1.744009	
6503.486359	1.743909	
6503.487929	1.744021	
6503.489447	1.743977	
6503.491040	1.743896	
6503.492534	1.743969	
6503.494180	1.743896	
6503.495678	1.743989	
6503.497343	1.744025	
6503.498833	1.743993	
6503.500454	1.743836	
6503.501928	1.743961	
6503.503505	1.743929	
6503.504985	1.743876	
6503.506632	1.744005	
6503.508110	1.743961	
6503.509697	1.743989	
6503.511256	1.743909	
6503.512795	1.743941	
6503.514397	1.743909	
6503.515875	1.744037	
6503.517557	1.743844	
6503.519050	1.743872	
6503.520687	1.743888	
6503.522210	1.743949	
6503.523841	1.743784	
6503.525312	1.743820	
6503.526961	1.743921	
6503.528447	1.743816	
6503.530078	1.743953	
6503.531579	1.743848	
6503.533192	1.744001	
6503.534706	1.743945	
6503.536284	1.743929	
6503.537831	1.743929	
6503.539361	1.743933	
6503.540960	1.743941	
6503.542448	1.744021	
6503.544083	1.743904	
6503.545603	1.743953	
6503.547254	1.743759	
6503.548742	1.743848	
6503.550394	1.743828	
6503.551885	1.743848	
6503.553518	1.743804	
6503.555016	1.743784	
6503.556668	1.743872	
6503.558145	1.743816	
6503.559739	1.743892	
6503.561254	1.743743	
6503.562831	1.743812	
6503.564386	1.743671	
6503.565998	1.743844	
6503.567576	1.743691	
6503.569145	1.743953	
6503.570765	1.743429	
6503.572301	1.743361	
6503.573975	1.742591	
6503.575449	1.742495	
6503.577184	1.734128	
6503.578656	1.723916	
6503.580360	1.711098	
6503.581836	1.630064	
6503.583536	1.687822	
6503.585022	1.558759	
6503.586736	1.623083	
6503.588232	1.490145	
6503.589930	1.574022	
6503.591412	1.401924	
6503.593090	1.495957	
6503.594599	1.331179	
6503.596251	1.445140	
6503.597787	1.289925	
6503.599419	1.389308	
6503.600995	1.255346	
6503.602568	1.360179	
6503.604170	1.183025	
6503.605709	1.268760	
6503.607349	1.128591	
6503.608851	1.203614	
6503.610542	1.104771	
6503.612014	1.163033	
6503.613733	1.088888	
6503.615217	1.076219	
6503.616933	1.113936	
6503.618431	1.039670	
6503.620163	1.057724	
6503.621647	0.982955	
6503.623345	1.072182	
6503.624829	0.938240	
6503.626507	1.026211	
6503.628000	0.912568	
6503.629675	1.026569	
6503.631199	0.897140	
6503.632837	1.010625	
6503.634398	0.867056	
6503.636091	1.023580	
6503.637661	0.848767	
6503.639331	1.008700	
6503.640903	0.820823	
6503.642554	0.982359	
6503.644131	0.786735	
6503.645765	0.989968	
6503.647383	0.775980	
6503.649001	0.948339	
6503.650635	0.757208	
6503.652235	0.931618	
6503.653905	0.757006	
6503.655500	0.881582	
6503.657148	0.712505	
6503.658733	0.844610	
6503.660430	0.704892	
6503.661988	0.843547	
6503.663705	0.756213	
6503.665251	0.797439	
6503.666949	0.720111	
6503.668499	0.768733	
6503.670210	0.738440	
6503.671735	0.696698	
6503.673494	0.706068	
6503.674973	0.725891	
6503.676766	0.701963	
6503.678246	0.654256	
6503.680005	0.694245	
6503.681485	0.617727	
6503.683226	0.667296	
6503.684711	0.615826	
6503.686457	0.669918	
6503.687965	0.555546	
6503.689716	0.651803	
6503.691230	0.510606	
6503.692955	0.618372	
6503.694481	0.458443	
6503.696191	0.623733	
6503.697746	0.450274	
6503.699448	0.608917	
6503.701016	0.424174	
6503.702694	0.603543	
6503.704263	0.364390	
6503.705934	0.543477	
6503.707524	0.341328	
6503.709186	0.511408	
6503.710771	0.299969	
6503.712391	0.493558	
6503.714003	0.330915	
6503.715600	0.455325	
6503.717272	0.283586	
6503.718872	0.426559	
6503.720517	0.276448	
6503.722113	0.363512	
6503.723783	0.253245	
6503.725345	0.308014	
6503.727054	0.185706	
6503.728612	0.289141	
6503.730322	0.234944	
6503.731872	0.229437	
6503.733567	0.229574	
6503.735090	0.236036	
6503.736817	0.200949	
6503.738312	0.186072	
6503.740085	0.188026	
6503.741574	0.102291	
6503.743352	0.184522	
6503.744831	0.137060	
6503.746603	0.188715	
6503.748082	0.042374	
6503.749854	0.182419	
6503.751353	0.073525	
6503.753099	0.155276	
6503.754602	0.025955	
6503.756335	0.168275	
6503.757858	0.009378	
6503.759565	0.142514	
6503.761100	-0.046209	
6503.762812	0.173436	
6503.764363	-0.018937	
6503.766036	0.147356	
6503.767609	-0.055711	
6503.769289	0.141813	
6503.770869	-0.010252	
6503.772543	0.131771	
6503.774119	-0.050793	
6503.775775	0.102851	
6503.777387	-0.080780	
6503.779007	0.125970	
6503.780643	-0.055482	
6503.782265	0.124129	
6503.783920	-0.056134	
6503.785508	0.101083	
6503.787182	-0.058640	
6503.788778	0.087532	
6503.790475	-0.059373	
6503.792042	0.061235	
6503.793735	-0.042728	
6503.795286	0.053940	
6503.797000	0.001289	
6503.798545	0.047849	
6503.800256	0.030817	
6503.801811	0.052356	
6503.803538	0.011751	
6503.805041	0.017129	
6503.806788	0.017515	
6503.808267	-0.032496	
6503.810052	0.006740	
6503.811534	-0.042273	
6503.813327	0.032243	
6503.814818	-0.041636	
6503.816635	0.009834	
6503.818117	-0.031288	
6503.819864	0.023175	
6503.821353	-0.099241	
6503.823127	0.007191	
6503.824632	-0.108945	
6503.826352	0.012271	
6503.827868	-0.137220	
6503.829609	0.035961	
6503.831135	-0.152069	
6503.832857	0.022474	
6503.834402	-0.169999	
6503.836105	0.000045	
6503.837659	-0.161326	
6503.839338	0.001595	
6503.840907	-0.195486	
6503.842541	-0.034832	
6503.844125	-0.256499	
6503.845760	-0.048066	
6503.847364	-0.271186	
6503.849004	-0.076630	
6503.850618	-0.260966	
6503.852215	-0.112229	
6503.853892	-0.296609	
6503.855467	-0.155465	
6503.857151	-0.267178	
6503.858709	-0.213416	
6503.860399	-0.313963	
6503.861957	-0.229433	
6503.863644	-0.294067	
6503.865193	-0.261176	
6503.866909	-0.340046	
6503.868447	-0.308492	
6503.870171	-0.340389	
6503.871652	-0.354794	
6503.873408	-0.351128	
6503.874886	-0.384902	
6503.876644	-0.367958	
6503.878124	-0.426204	
6503.879913	-0.364200	
6503.881394	-0.454374	
6503.883171	-0.385123	
6503.884666	-0.460380	
6503.886415	-0.405639	
6503.887922	-0.547972	
6503.889664	-0.423578	
6503.891185	-0.551686	
6503.892887	-0.443143	
6503.894436	-0.595087	
6503.896147	-0.413684	
6503.897681	-0.643314	
6503.899369	-0.444960	
6503.900933	-0.633799	
6503.902589	-0.474121	
6503.904174	-0.696420	
6503.905836	-0.490661	
6503.907434	-0.690877	
6503.909048	-0.530779	
6503.910658	-0.716058	
6503.912296	-0.533406	
6503.913917	-0.690083	
6503.915535	-0.545080	
6503.917182	-0.709177	
6503.918769	-0.585951	
6503.920454	-0.719236	
6503.922026	-0.605879	
6503.923734	-0.747865	
6503.925294	-0.656342	
6503.926981	-0.693169	
6503.928516	-0.638557	
6503.930213	-0.665768	
6503.931735	-0.699147	
6503.933486	-0.707840	
6503.934974	-0.677732	
6503.936741	-0.726974	
6503.938224	-0.756820	
6503.939990	-0.729363	
6503.941477	-0.775822	
6503.943256	-0.738749	
6503.944746	-0.788902	
6503.946519	-0.723583	
6503.948007	-0.817587	
6503.949749	-0.736280	
6503.951258	-0.846865	
6503.952989	-0.754701	
6503.954504	-0.903431	
6503.956218	-0.745271	
6503.957748	-0.913969	
6503.959458	-0.781111	
6503.961012	-0.967429	
6503.962678	-0.780680	
6503.964245	-0.999192	
6503.965916	-0.797728	
6503.967503	-1.007475	
6503.969146	-0.847804	
6503.970739	-1.098184	
6503.972375	-0.892434	
6503.973986	-1.131510	
6503.975592	-0.963042	
6503.977254	-1.149912	
6503.978860	-0.996252	
6503.980503	-1.168748	
6503.982100	-1.054513	
6503.983772	-1.209193	
6503.985330	-1.116964	
6503.987032	-1.228665	
6503.988584	-1.196435	
6503.990269	-1.274000	
6503.991828	-1.264719	
6503.993530	-1.337084	
6503.995057	-1.337132	
6503.996810	-1.371997	
6503.998292	-1.399905	
6504.000077	-1.415471	
6504.001560	-1.454670	
6504.003337	-1.444958	
6504.004815	-1.504235	
6504.006573	-1.475094	
6504.008048	-1.509016	
6504.009819	-1.508960	
6504.011365	-1.509488	
6504.012854	-1.509452	
6504.014416	-1.509472	
6504.015938	-1.509504	
6504.017531	-1.509415	
6504.019023	-1.509500	
6504.020609	-1.509540	
6504.022103	-1.509540	
6504.023731	-1.509504	
6504.025213	-1.509532	
6504.026776	-1.509431	
6504.028280	-1.509508	
6504.029820	-1.509544	
6504.031333	-1.509556	
6504.032903	-1.509516	
6504.034444	-1.509504	
6504.035959	-1.509540	
6504.037598	-1.509540	
6504.039082	-1.509435	
6504.040718	-1.509556	
6504.042235	-1.509472	
6504.043866	-1.509520	
6504.045350	-1.509476	
6504.046986	-1.509597	
6504.048472	-1.509588	
6504.050108	-1.509568	
6504.051606	-1.509629	
6504.053250	-1.509464	
6504.054732	-1.509548	
6504.056323	-1.509548	
6504.057839	-1.509520	
6504.059390	-1.509516	
6504.060979	-1.509596	
6504.062466	-1.509456	
6504.064133	-1.509560	
6504.065636	-1.509532	
6504.067264	-1.509552	
6504.068796	-1.509524	
6504.070447	-1.509588	
6504.071930	-1.509548	
6504.073573	-1.509488	
6504.075051	-1.509568	
6504.076674	-1.509484	
6504.078146	-1.509564	
6504.079771	-1.509472	
6504.081272	-1.509601	
6504.082833	-1.509439	
6504.084385	-1.509597	
6504.085887	-1.509444	
6504.087548	-1.509548	
6504.089027	-1.509492	
6504.090660	-1.509613	
6504.092177	-1.509560	
6504.093825	-1.509637	
6504.095301	-1.509528	
6504.096948	-1.509508	
6504.098420	-1.509500	
6504.100116	-1.509649	
6504.101601	-1.509532	
6504.103310	-1.509484	
6504.104792	-1.509544	
6504.106492	-1.509431	
6504.108000	-1.509504	
6504.109671	-1.509532	
6504.111176	-1.509504	
6504.112821	-1.509468	
6504.114372	-1.509629	
6504.115998	-1.509395	
6504.117574	-1.509544	
6504.119141	-1.509512	
6504.120756	-1.509556	
6504.122296	-1.509415	
6504.123930	-1.509649	
6504.125412	-1.509500	
6504.127130	-1.509584	
6504.128601	-1.509576	
6504.130325	-1.509605	
6504.131798	-1.509488	
6504.133501	-1.509564	
6504.134987	-1.509456	
6504.136706	-1.509492	
6504.138206	-1.509585	
6504.139920	-1.509492	
6504.141401	-1.509588	
6504.143097	-1.509540	
6504.144586	-1.509625	
6504.146245	-1.509528	
6504.147780	-1.509641	
6504.149413	-1.509504	
6504.150979	-1.509552	
6504.152564	-1.509568	
6504.154149	-1.509576	
6504.155702	-1.509528	
6504.157327	-1.509617	
6504.158838	-1.509597	
6504.160522	-1.509568	
6504.161995	-1.509492	
6504.163702	-1.509596	
6504.165174	-1.509524	
6504.166886	-1.509621	
6504.168376	-1.509476	
6504.170105	-1.509516	
6504.171583	-1.509484	
6504.173360	-1.509568	
6504.174839	-1.509460	
6504.176617	-1.509520	
6504.178096	-1.509504	
6504.179863	-1.509609	
6504.181345	-1.509560	
6504.183124	-1.509516	
6504.184620	-1.509492	
6504.186379	-1.509580	
6504.187889	-1.509512	
6504.189619	-1.509423	
6504.191142	-1.509593	
6504.192863	-1.509452	
6504.194403	-1.509500	
6504.196103	-1.509556	
6504.197664	-1.509653	
6504.199359	-1.509447	
6504.200921	-1.509488	
6504.202601	-1.509476	
6504.204168	-1.509468	
6504.205846	-1.509472	
6504.207432	-1.509520	
6504.209083	-1.509504	
6504.210688	-1.509564	
6504.212311	-1.509516	
6504.213930	-1.509617	
6504.215536	-1.509411	
6504.217162	-1.509621	
6504.218765	-1.509452	
6504.220439	-1.509544	
6504.222009	-1.509572	
6504.223700	-1.509596	
6504.225256	-1.509476	
6504.226962	-1.509585	
6504.228531	-1.509496	
6504.230205	-1.509516	
6504.231736	-1.509375	
6504.233463	-1.509588	
6504.234951	-1.509492	
6504.236715	-1.509544	
6504.238191	-1.509480	
6504.239985	-1.509504	
6504.241472	-1.509447	
6504.243232	-1.509524	
6504.244711	-1.509427	
6504.246464	-1.509452	
6504.247975	-1.509536	
6504.249736	-1.509593	
6504.251236	-1.509496	
6504.252979	-1.509500	
6504.254490	-1.509528	
6504.256217	-1.509415	
6504.257750	-1.509439	
6504.259476	-1.509488	
6504.261019	-1.509488	
6504.262708	-1.509363	
6504.264268	-1.509532	
6504.265943	-1.509407	
6504.267503	-1.509427	
6504.269158	-1.509290	
6504.270731	-1.509226	
6504.272372	-1.503888	
6504.273990	-1.509093	
6504.275619	-1.422669	
6504.277252	-1.500025	
6504.278894	-1.327976	
6504.280535	-1.399474	
6504.282126	-1.242664	
6504.283788	-1.322900	
6504.285378	-1.152712	
6504.287071	-1.185945	
6504.288631	-1.051709	
6504.290324	-1.069559	
6504.291860	-0.965097	
6504.293560	-0.965221	
6504.295113	-0.863095	
6504.296820	-0.814679	
6504.298343	-0.729468	
6504.300085	-0.671625	
6504.301567	-0.597182	
6504.303344	-0.538079	
6504.304829	-0.519190	
6504.306605	-0.425966	
6504.308086	-0.395464	
6504.309855	-0.286933	
6504.311333	-0.295968	
6504.313093	-0.137035	
6504.314597	-0.173374	
6504.316357	0.001716	
6504.317868	-0.016202	
6504.319594	0.152508	
6504.321114	0.088458	
6504.322836	0.292344	
6504.324380	0.189783	
6504.326087	0.428054	
6504.327646	0.310431	
6504.329328	0.577343	
6504.330882	0.477727	
6504.332559	0.701984	
6504.334137	0.601880	
6504.335798	0.819405	
6504.337399	0.682188	
6504.339037	0.917225	
6504.340656	0.791316	
6504.342276	1.009707	
6504.343912	0.902928	
6504.345535	1.134488	
6504.347185	1.036491	
6504.348786	1.259845	
6504.350449	1.179195	
6504.352013	1.374221	
6504.353696	1.322885	
6504.355261	1.418815	
6504.356952	1.420302	
6504.358520	1.510741	
6504.360219	1.499700	
6504.361768	1.596117	
6504.363466	1.638213	
6504.364982	1.623144	
6504.366749	1.741121	
6504.368224	1.719590	
6504.370012	1.740738	
6504.371496	1.742986	
6504.373254	1.742954	
6504.374738	1.743538	
6504.376502	1.743771	
6504.377995	1.743808	
6504.379771	1.744054	
6504.381263	1.743747	
6504.383029	1.743937	
6504.384535	1.743860	
6504.386270	1.743909	
6504.387796	1.743840	
6504.389521	1.744005	
6504.391061	1.743840	
6504.392780	1.744114	
6504.394329	1.743796	
6504.396035	1.744074	
6504.397594	1.743832	
6504.399269	1.743977	
6504.400829	1.743852	
6504.402505	1.744126	
6504.404099	1.743860	
6504.405736	1.744066	
6504.407339	1.743961	
6504.408981	1.743961	
6504.410591	1.743836	
6504.412213	1.744174	
6504.413863	1.743925	
6504.415465	1.744017	
6504.417132	1.743901	
6504.418706	1.744009	
6504.420392	1.743985	
6504.421955	1.744110	
6504.423646	1.743824	
6504.425209	1.743909	
6504.426889	1.743921	
6504.428454	1.744110	
6504.430168	1.744021	
6504.431693	1.744070	
6504.433428	1.743989	
6504.434908	1.744082	
6504.436676	1.743953	
6504.438155	1.744086	
6504.439925	1.744126	
6504.441415	1.743909	
6504.443216	1.744070	
6504.444696	1.743985	
6504.446466	1.743949	
6504.447951	1.743836	
6504.449688	1.744134	
6504.451200	1.743893	
6504.452932	1.744090	
6504.454460	1.743929	
6504.456174	1.744070	
6504.457722	1.743897	
6504.459421	1.744154	
6504.460972	1.743888	
6504.462674	1.743981	
6504.464233	1.743941	
6504.465914	1.744122	
6504.467494	1.743969	
6504.469142	1.744001	
6504.470746	1.744009	
6504.472399	1.744070	
6504.473996	1.743909	
6504.475634	1.744146	
6504.477248	1.743892	
6504.478863	1.744134	
6504.480527	1.744025	
6504.482111	1.744098	
6504.483790	1.743925	
6504.485372	1.743993	
6504.487042	1.743941	
6504.488627	1.743969	
6504.490300	1.743816	
6504.491854	1.744005	
6504.493567	1.744033	
6504.495118	1.744033	
6504.496838	1.744001	
6504.498367	1.744037	
6504.500109	1.743977	
6504.501601	1.744009	
6504.503346	1.743993	
6504.504834	1.744046	
6504.506616	1.744090	
6504.508096	1.743969	
6504.509883	1.744029	
6504.511361	1.743892	
6504.513118	1.744033	
6504.514608	1.743949	
6504.516364	1.743977	
6504.517870	1.744009	
6504.519595	1.744126	
6504.521122	1.743900	
6504.522859	1.744078	
6504.524389	1.743901	
6504.526110	1.744170	
6504.527663	1.743868	
6504.529359	1.743985	
6504.530909	1.743860	
6504.532580	1.744054	
6504.534161	1.743892	
6504.535825	1.744114	
6504.537412	1.743937	
6504.539074	1.744005	
6504.540674	1.743880	
6504.542307	1.744138	
6504.543935	1.743788	
6504.545544	1.744042	
6504.547219	1.743856	
6504.548804	1.744005	
6504.550478	1.743896	
6504.552078	1.744054	
6504.553732	1.743864	
6504.555331	1.744086	
6504.557028	1.743888	
6504.558585	1.744050	
6504.560301	1.743860	
6504.561774	1.743792	
6504.563337	1.743997	
6504.564845	1.743804	
6504.566386	1.743844	
6504.567934	1.743892	
6504.569431	1.743848	
6504.570995	1.743888	
6504.572529	1.743796	
6504.574127	1.743788	
6504.575618	1.743900	
6504.577242	1.743868	
6504.578766	1.743941	
6504.580402	1.743925	
6504.581871	1.743776	
6504.583448	1.743755	
6504.584933	1.743760	
6504.586570	1.743969	
6504.588052	1.743635	
6504.589671	1.743840	
6504.591189	1.743731	
6504.592746	1.743735	
6504.594309	1.743703	
6504.595800	1.743812	
6504.597466	1.743752	
6504.598954	1.743751	
6504.600588	1.743518	
6504.602108	1.743707	
6504.603756	1.743582	
6504.605229	1.743393	
6504.606864	1.743631	
6504.608341	1.741657	
6504.609983	1.740186	
6504.611466	1.737669	
6504.613088	1.736605	
6504.614605	1.664663	
6504.616186	1.695847	
6504.617727	1.628441	
6504.619262	1.642620	
6504.620884	1.569744	
6504.622363	1.531342	
6504.624003	1.515849	
6504.625529	1.458212	
6504.627174	1.486870	
6504.628654	1.389473	
6504.630292	1.421043	
6504.631773	1.316778	
6504.633422	1.394226	
6504.634919	1.256075	
6504.636546	1.342660	
6504.638048	1.235998	
6504.639654	1.249166	
6504.641174	1.183211	
6504.642742	1.230970	
6504.644323	1.094358	
6504.645818	1.158674	
6504.647480	1.067360	
6504.648972	1.124909	
6504.650596	1.037430	
6504.652106	1.116365	
6504.653794	1.036165	
6504.655266	1.047452	
6504.656994	1.021123	
6504.658463	0.961923	
6504.660162	0.986790	
6504.661648	0.927747	
6504.663360	0.987652	
6504.664838	0.881421	
6504.666538	0.945354	
6504.668028	0.848679	
6504.669710	0.928621	
6504.671223	0.794172	
6504.672874	0.905603	
6504.674388	0.765595	
6504.676025	0.879052	
6504.677582	0.736800	
6504.679183	0.878714	
6504.680769	0.705190	
6504.682330	0.832022	
6504.683936	0.737679	
6504.685449	0.817508	
6504.687132	0.719221	
6504.688607	0.761313	
6504.690344	0.710681	
6504.691815	0.693419	
6504.693531	0.722649	
6504.695005	0.709666	
6504.696720	0.717102	
6504.698197	0.691739	
6504.699880	0.760616	
6504.701376	0.653470	
6504.703060	0.754444	
6504.704566	0.622376	
6504.706220	0.749522	
6504.707735	0.609747	
6504.709374	0.709818	
6504.710919	0.582713	
6504.712521	0.716131	
6504.714109	0.570217	
6504.715682	0.689613	
6504.717299	0.586528	
6504.718834	0.670909	
6504.720509	0.535445	
6504.722091	0.671570	
6504.723764	0.547050	
6504.725239	0.562463	
6504.726958	0.534107	
6504.728523	0.602963	
6504.730223	0.550386	
6504.731780	0.576465	
6504.733491	0.531328	
6504.735023	0.549673	
6504.736757	0.484631	
6504.738253	0.513035	
6504.739994	0.496016	
6504.741472	0.459394	
6504.743250	0.475201	
6504.744739	0.412992	
6504.746534	0.458290	
6504.748012	0.394679	
6504.749810	0.454262	
6504.751288	0.354207	
6504.753046	0.436767	
6504.754547	0.304674	
6504.756298	0.420968	
6504.757811	0.254788	
6504.759548	0.373168	
6504.761067	0.280508	
6504.762776	0.393301	
6504.764313	0.201706	
6504.765998	0.380624	
6504.767555	0.181621	
6504.769228	0.345614	
6504.770802	0.167905	
6504.772452	0.334383	
6504.774049	0.139211	
6504.775713	0.280609	
6504.777311	0.065110	
6504.778960	0.287236	
6504.780561	0.083910	
6504.782180	0.238566	
6504.783850	0.073896	
6504.785431	0.203551	
6504.787083	0.057166	
6504.788669	0.182097	
6504.790357	0.024186	
6504.791941	0.126381	
6504.793608	0.026555	
6504.795176	0.126582	
6504.796870	0.070025	
6504.798410	0.109841	
6504.800130	0.062435	
6504.801629	0.034592	
6504.803386	0.015260	
6504.804873	0.032976	
6504.806644	0.035518	
6504.808138	0.014394	
6504.809914	-0.002497	
6504.811391	-0.005394	
6504.813173	0.040626	
6504.814657	-0.002159	
6504.816409	0.062524	
6504.817899	-0.053633	
6504.819652	0.057803	
6504.821164	-0.075498	
6504.822897	0.084019	
6504.824424	-0.077098	
6504.826161	0.038221	
6504.827694	-0.130034	
6504.829399	0.070037	
6504.830948	-0.120402	
6504.832638	0.063048	
6504.834191	-0.087253	
6504.835886	0.072514	
6504.837464	-0.134711	
6504.839132	0.056566	
6504.840711	-0.131246	
6504.842386	0.050616	
6504.843981	-0.153813	
6504.845627	0.064397	
6504.847243	-0.113634	
6504.848866	0.034950	
6504.850515	-0.107097	
6504.852115	0.020944	
6504.853800	-0.154909	
6504.855392	-0.000459	
6504.857029	-0.113465	
6504.858628	-0.013124	
6504.860310	-0.104144	
6504.861869	-0.041407	
6504.863589	-0.091571	
6504.865136	-0.026574	
6504.866846	-0.084880	
6504.868397	-0.044476	
6504.870101	-0.089718	
6504.871623	-0.109755	
6504.873369	-0.100055	
6504.874854	-0.137970	
6504.876658	-0.126155	
6504.878139	-0.130449	
6504.879931	-0.103310	
6504.881413	-0.166083	
6504.883177	-0.127576	
6504.884659	-0.209714	
6504.886427	-0.124878	
6504.887928	-0.232188	
6504.889685	-0.173177	
6504.891184	-0.276939	
6504.892913	-0.166804	
6504.894426	-0.333154	
6504.896156	-0.163417	
6504.897695	-0.316996	
6504.899405	-0.202769	
6504.900956	-0.344679	
6504.902647	-0.196888	
6504.904199	-0.380358	
6504.905901	-0.233368	
6504.907465	-0.445572	
6504.909131	-0.258074	
6504.910708	-0.443727	
6504.912345	-0.283831	
6504.913950	-0.439767	
6504.915572	-0.319925	
6504.917210	-0.461915	
6504.918839	-0.357819	
6504.920508	-0.531105	
6504.922123	-0.392857	
6504.923811	-0.583506	
6504.925396	-0.437874	
6504.927084	-0.573640	
6504.928655	-0.455377	
6504.930331	-0.529978	
6504.931894	-0.498855	
6504.933578	-0.566152	
6504.935139	-0.512704	
6504.936864	-0.597351	
6504.938420	-0.564101	
6504.940120	-0.614057	
6504.941639	-0.603930	
6504.943378	-0.626399	
6504.944860	-0.621872	
6504.946634	-0.627439	
6504.948116	-0.643882	
6504.949892	-0.650034	
6504.951375	-0.694132	
6504.953166	-0.638867	
6504.954644	-0.728868	
6504.956421	-0.648172	
6504.957908	-0.730713	
6504.959659	-0.683787	
6504.961162	-0.766396	
6504.962913	-0.651895	
6504.964436	-0.829946	
6504.966162	-0.680419	
6504.967678	-0.794542	
6504.969373	-0.667782	
6504.970912	-0.842418	
6504.972601	-0.722592	
6504.974171	-0.877170	
6504.975835	-0.700911	
6504.977408	-0.896474	
6504.979037	-0.705487	
6504.980647	-0.866129	
6504.982265	-0.719760	
6504.983865	-0.883120	
6504.985486	-0.754730	
6504.987126	-0.931782	
6504.988737	-0.815287	
6504.990412	-0.943561	
6504.992001	-0.837822	
6504.993687	-0.932371	
6504.995261	-0.847292	
6504.996952	-0.955332	
6504.998524	-0.885501	
6505.000210	-0.994519	
6505.001769	-0.918589	
6505.003482	-1.013336	
6505.005018	-0.991474	
6505.006732	-1.051129	
6505.008229	-1.018395	
6505.009986	-1.030984	
6505.011468	-1.071344	
6505.013223	-1.049244	
6505.014707	-1.127176	
6505.016503	-1.077805	
6505.017976	-1.160245	
6505.019748	-1.112517	
6505.021237	-1.240046	
6505.022993	-1.138911	
6505.024488	-1.264941	
6505.026222	-1.178589	
6505.027737	-1.378773	
6505.029477	-1.224206	
6505.031013	-1.393166	
6505.032718	-1.259684	
6505.034271	-1.454932	
6505.035958	-1.315701	
6505.037523	-1.504122	
6505.039213	-1.390100	
6505.040785	-1.508618	
6505.042452	-1.451927	
6505.044052	-1.508956	
6505.045706	-1.488452	
6505.047292	-1.509282	
6505.048923	-1.509258	
6505.050519	-1.509266	
6505.052146	-1.509323	
6505.053820	-1.509307	
6505.055404	-1.509427	
6505.057057	-1.509423	
6505.058626	-1.509464	
6505.060320	-1.509423	
6505.061896	-1.509375	
6505.063571	-1.509375	
6505.065133	-1.509431	
6505.066835	-1.509500	
6505.068387	-1.509427	
6505.070117	-1.509447	
6505.071642	-1.509468	
6505.073372	-1.509375	
6505.074856	-1.509371	
6505.076623	-1.509464	
6505.078108	-1.509415	
6505.079896	-1.509399	
6505.081384	-1.509464	
6505.083148	-1.509512	
6505.084633	-1.509488	
6505.086403	-1.509387	
6505.087892	-1.509484	
6505.089645	-1.509427	
6505.091150	-1.509431	
6505.092895	-1.509407	
6505.094417	-1.509524	
6505.096151	-1.509435	
6505.097684	-1.509576	
6505.099398	-1.509540	
6505.100933	-1.509585	
6505.102630	-1.509391	
6505.104226	-1.509597	
6505.105719	-1.509540	
6505.107272	-1.509568	
6505.108794	-1.509556	
6505.110387	-1.509544	
6505.111877	-1.509500	
6505.113462	-1.509520	
6505.114948	-1.509540	
6505.116494	-1.509617	
6505.118017	-1.509524	
6505.119510	-1.509540	
6505.121083	-1.509597	
6505.122634	-1.509528	
6505.124221	-1.509532	
6505.125708	-1.509572	
6505.127367	-1.509512	
6505.128859	-1.509613	
6505.130522	-1.509564	
6505.132011	-1.509625	
6505.133648	-1.509593	
6505.135121	-1.509512	
6505.136771	-1.509488	
6505.138249	-1.509508	
6505.139891	-1.509556	
6505.141375	-1.509572	
6505.142997	-1.509504	
6505.144517	-1.509572	
6505.146078	-1.509556	
6505.147638	-1.509552	
6505.149125	-1.509560	
6505.150775	-1.509637	
6505.152262	-1.509520	
6505.153905	-1.509609	
6505.155420	-1.509552	
6505.157061	-1.509641	
6505.158539	-1.509540	
6505.160173	-1.509592	
6505.161652	-1.509597	
6505.163305	-1.509492	
6505.164801	-1.509568	
6505.166434	-1.509576	
6505.167942	-1.509520	
6505.169511	-1.509508	
6505.171050	-1.509548	
6505.172599	-1.509580	
6505.174191	-1.509536	
6505.175691	-1.509447	
6505.177353	-1.509580	
6505.178853	-1.509512	
6505.180502	-1.509520	
6505.181995	-1.509580	
6505.183692	-1.509681	
6505.185185	-1.509568	
6505.186834	-1.509621	
6505.188315	-1.509504	
6505.189953	-1.509508	
6505.191438	-1.509476	
6505.193142	-1.509544	
6505.194619	-1.509584	
6505.196306	-1.509472	
6505.197824	-1.509609	
6505.199491	-1.509472	
6505.201029	-1.509733	
6505.202650	-1.509419	
6505.204210	-1.509576	
6505.205812	-1.509532	
6505.207411	-1.509637	
6505.208991	-1.509544	
6505.210585	-1.509576	
6505.212115	-1.509395	
6505.213784	-1.509617	
6505.215267	-1.509447	
6505.216998	-1.509588	
6505.218472	-1.509500	
6505.220195	-1.509637	
6505.221667	-1.509500	
6505.223376	-1.509576	
6505.224855	-1.509476	
6505.226550	-1.509540	
6505.228029	-1.509580	
6505.229722	-1.509576	
6505.231222	-1.509605	
6505.232885	-1.509544	
6505.234415	-1.509552	
6505.236046	-1.509500	
6505.237606	-1.509584	
6505.239219	-1.509532	
6505.240786	-1.509504	
6505.242375	-1.509556	
6505.243977	-1.509540	
6505.245528	-1.509460	
6505.247141	-1.509596	
6505.248630	-1.509464	
6505.250345	-1.509568	
6505.251815	-1.509460	
6505.253554	-1.509512	
6505.255028	-1.509544	
6505.256726	-1.509617	
6505.258204	-1.509536	
6505.259900	-1.509524	
6505.261380	-1.509512	
6505.263165	-1.509472	
6505.264651	-1.509512	
6505.266447	-1.509480	
6505.267928	-1.509464	
6505.269676	-1.509472	
6505.271179	-1.509464	
6505.272929	-1.509540	
6505.274437	-1.509391	
6505.276192	-1.509403	
6505.277709	-1.509456	
6505.279445	-1.509395	
6505.280974	-1.509544	
6505.282718	-1.509427	
6505.284262	-1.509488	
6505.285950	-1.509415	
6505.287503	-1.509560	
6505.289184	-1.509359	
6505.290761	-1.509524	
6505.292408	-1.509391	
6505.293997	-1.509508	
6505.295638	-1.509528	
6505.297232	-1.509476	
6505.298863	-1.509395	
6505.300473	-1.509431	
6505.302073	-1.509359	
6505.303738	-1.509355	
6505.305317	-1.508742	
6505.307018	-1.508215	
6505.308575	-1.478953	
6505.310262	-1.484299	
6505.311830	-1.405199	
6505.313505	-1.380541	
6505.315054	-1.294915	
6505.316759	-1.310404	
6505.318279	-1.236074	
6505.320017	-1.197740	
6505.321496	-1.153062	
6505.323253	-1.111776	
6505.324734	-1.087417	
6505.326497	-0.983558	
6505.327980	-1.001649	
6505.329748	-0.872731	
6505.331238	-0.895201	
6505.333004	-0.730274	
6505.334499	-0.789563	
6505.336226	-0.609041	
6505.337741	-0.676451	
6505.339459	-0.448988	
6505.340993	-0.566253	
6505.342703	-0.345650	
6505.344261	-0.460086	
6505.345975	-0.219495	
6505.347529	-0.318052	
6505.349220	-0.093191	
6505.350787	-0.176287	
6505.352479	0.042644	
6505.354065	-0.121832	
6505.355734	0.168497	
6505.357330	0.004734	
6505.358970	0.263791	
6505.360579	0.124902	
6505.362226	0.385873	
6505.363828	0.291776	
6505.365448	0.488902	
6505.367116	0.430853	
6505.368700	0.600031	
6505.370382	0.497792	
6505.371955	0.695760	
6505.373653	0.645724	
6505.375240	0.804287	
6505.376915	0.752869	
6505.378487	0.921616	
6505.380173	0.925568	
6505.381726	0.999552	
6505.383443	1.037236	
6505.384990	1.149014	
6505.386701	1.156974	
6505.388202	1.206035	
6505.389951	1.239341	
6505.391431	1.307662	
6505.393214	1.336218	
6505.394702	1.363321	
6505.396484	1.494922	
6505.397964	1.487764	
6505.399755	1.576226	
6505.401232	1.568338	
6505.403019	1.678037	
6505.404507	1.623546	
6505.406255	1.736557	
6505.407768	1.681474	
6505.409529	1.742301	
6505.411042	1.742104	
6505.412756	1.743824	
6505.414291	1.743651	
6505.416007	1.743985	
6505.417556	1.743550	
6505.419245	1.743876	
6505.420808	1.743627	
6505.422489	1.743961	
6505.424068	1.743764	
6505.425734	1.744017	
6505.427320	1.743667	
6505.428971	1.744070	
6505.430580	1.743723	
6505.432211	1.744062	
6505.433824	1.743784	
6505.435430	1.743965	
6505.437075	1.743715	
6505.438678	1.744090	
6505.440336	1.743828	
6505.441931	1.743973	
6505.443615	1.743764	
6505.445203	1.744106	
6505.446915	1.743876	
6505.448475	1.744041	
6505.450167	1.743816	
6505.451717	1.744106	
6505.453408	1.743812	
6505.454949	1.744037	
6505.456672	1.743969	
6505.458175	1.744041	
6505.459952	1.743896	
6505.461430	1.744034	
6505.463218	1.743981	
6505.464697	1.744021	
6505.466458	1.743977	
6505.467936	1.743925	
6505.469700	1.744049	
6505.471198	1.744013	
6505.472966	1.744025	
6505.474471	1.743941	
6505.476231	1.744033	
6505.477749	1.743929	
6505.479475	1.744005	
6505.480999	1.743917	
6505.482716	1.744118	
6505.484262	1.743969	
6505.485972	1.744106	
6505.487523	1.743977	
6505.489230	1.744130	
6505.490786	1.743965	
6505.492459	1.744114	
6505.494031	1.743780	
6505.495691	1.744195	
6505.497288	1.743896	
6505.498927	1.744203	
6505.500542	1.743933	
6505.502182	1.744130	
6505.503805	1.743824	
6505.505434	1.744158	
6505.507085	1.743941	
6505.508671	1.744219	
6505.510349	1.743921	
6505.511930	1.744037	
6505.513619	1.743937	
6505.515206	1.744009	
6505.516895	1.743904	
6505.518459	1.744179	
6505.520148	1.743929	
6505.521707	1.744009	
6505.523411	1.744030	
6505.524940	1.744090	
6505.526674	1.743880	
6505.528175	1.744086	
6505.529938	1.743884	
6505.531422	1.744025	
6505.533208	1.743977	
6505.534702	1.743977	
6505.536499	1.743941	
6505.537981	1.743985	
6505.539776	1.743989	
6505.541259	1.743961	
6505.543012	1.743997	
6505.544500	1.744050	
6505.546277	1.744090	
6505.547779	1.743909	
6505.549533	1.744078	
6505.551046	1.743917	
6505.552762	1.744090	
6505.554295	1.744025	
6505.556010	1.744106	
6505.557555	1.743937	
6505.559241	1.744078	
6505.560792	1.743961	
6505.562482	1.744247	
6505.564052	1.743864	
6505.565712	1.743921	
6505.567290	1.743800	
6505.568929	1.744033	
6505.570523	1.743828	
6505.572170	1.744066	
6505.573811	1.743856	
6505.575423	1.744110	
6505.577095	1.743884	
6505.578693	1.744094	
6505.580336	1.743788	
6505.581923	1.744098	
6505.583595	1.743876	
6505.585156	1.743957	
6505.586849	1.743880	
6505.588389	1.744094	
6505.590102	1.743945	
6505.591629	1.743876	
6505.593349	1.743884	
6505.594852	1.744062	
6505.596603	1.743945	
6505.598087	1.743868	
6505.599873	1.743949	
6505.601351	1.743949	
6505.603145	1.744009	
6505.604616	1.743949	
6505.606393	1.743788	
6505.607884	1.743913	
6505.609636	1.743961	
6505.611136	1.743884	
6505.612893	1.744066	
6505.614408	1.743860	
6505.616139	1.743925	
6505.617661	1.743844	
6505.619374	1.744013	
6505.620915	1.743844	
6505.622604	1.744029	
6505.624157	1.743848	
6505.625827	1.744082	
6505.627427	1.743860	
6505.628913	1.743760	
6505.630489	1.743719	
6505.632015	1.743760	
6505.633609	1.743792	
6505.635089	1.743731	
6505.636724	1.743788	
6505.638212	1.743643	
6505.639763	1.743619	
6505.641270	1.743703	
6505.642850	1.743848	
6505.644399	1.743631	
6505.645948	1.743780	
6505.647537	1.743385	
6505.649030	1.743449	
6505.650670	1.742926	
6505.652160	1.742329	
6505.653804	1.742015	
6505.655325	1.672595	
6505.656942	1.739506	
6505.658419	1.661695	
6505.660072	1.652538	
6505.661561	1.560773	
6505.663180	1.657066	
6505.664677	1.503209	
6505.666296	1.590506	
6505.667805	1.478374	
6505.669389	1.519443	
6505.670917	1.409550	
6505.672425	1.447275	
6505.674074	1.363728	
6505.675561	1.364977	
6505.677192	1.324859	
6505.678724	1.303239	
6505.680362	1.300995	
6505.681851	1.213363	
6505.683514	1.240735	
6505.684991	1.144559	
6505.686625	1.227945	
6505.688104	1.086765	
6505.689734	1.201390	
6505.691213	1.104880	
6505.692819	1.133767	
6505.694342	1.022900	
6505.695895	1.079332	
6505.697498	1.003644	
6505.698990	1.048334	
6505.700654	0.983064	
6505.702147	1.030751	
6505.703776	0.963957	
6505.705293	0.972985	
6505.706936	0.949963	
6505.708410	0.882207	
6505.710039	0.915392	
6505.711514	0.838531	
6505.713158	0.947429	
6505.714640	0.840191	
6505.716334	0.940170	
6505.717826	0.802788	
6505.719491	0.918981	
6505.721017	0.753300	
6505.722648	0.895101	
6505.724201	0.748656	
6505.725815	0.865884	
6505.727381	0.737985	
6505.728959	0.845327	
6505.730550	0.735213	
6505.732083	0.787557	
6505.733732	0.700255	
6505.735213	0.778876	
6505.736933	0.714226	
6505.738402	0.694499	
6505.740128	0.705484	
6505.741601	0.650699	
6505.743314	0.729537	
6505.744798	0.608704	
6505.746492	0.733517	
6505.747974	0.577589	
6505.749662	0.738718	
6505.751155	0.573327	
6505.752819	0.707631	
6505.754348	0.558861	
6505.755992	0.690048	
6505.757525	0.516334	
6505.759136	0.675131	
6505.760698	0.550019	
6505.762291	0.637039	
6505.763900	0.503444	
6505.765439	0.578668	
6505.767127	0.495883	
6505.768608	0.560763	
6505.770332	0.509539	
6505.771811	0.517817	
6505.773537	0.503057	
6505.775006	0.478879	
6505.776718	0.477582	
6505.778193	0.424799	
6505.779898	0.504048	
6505.781389	0.409181	
6505.783079	0.495605	
6505.784573	0.386284	
6505.786259	0.467326	
6505.787754	0.339749	
6505.789494	0.454786	
6505.791015	0.319462	
6505.792739	0.452465	
6505.794274	0.327644	
6505.796001	0.463551	
6505.797544	0.285588	
6505.799262	0.442544	
6505.800819	0.255823	
6505.802508	0.411674	
6505.804069	0.197054	
6505.805754	0.370614	
6505.807313	0.154281	
6505.808978	0.345505	
6505.810569	0.138317	
6505.812194	0.339890	
6505.813813	0.105393	
6505.815437	0.305907	
6505.817085	0.137112	
6505.818678	0.266200	
6505.820316	0.088072	
6505.821904	0.213985	
6505.823600	0.119952	
6505.825159	0.175490	
6505.826867	0.064429	
6505.828423	0.156835	
6505.830145	0.093248	
6505.831706	0.127142	
6505.833406	0.045581	
6505.834951	0.087910	
6505.836681	0.052300	
6505.838188	0.059483	
6505.839946	0.011332	
6505.841425	0.036388	
6505.843191	0.050455	
6505.844672	-0.011952	
6505.846428	0.073940	
6505.847910	-0.016254	
6505.849698	0.054214	
6505.851184	-0.035638	
6505.852944	0.047877	
6505.854447	-0.026756	
6505.856206	0.042443	
6505.857713	-0.086991	
6505.859462	0.023767	
6505.860986	-0.154272	
6505.862725	0.046479	
6505.864261	-0.112982	
6505.865979	0.053122	
6505.867522	-0.115548	
6505.869228	0.046987	
6505.870780	-0.129985	
6505.872457	0.030370	
6505.874024	-0.162663	
6505.875694	0.011179	
6505.877300	-0.183465	
6505.878957	0.028807	
6505.880539	-0.161841	
6505.882189	0.016106	
6505.883795	-0.168851	
6505.885429	-0.009655	
6505.887082	-0.211245	
6505.888669	-0.037818	
6505.890360	-0.169423	
6505.891940	-0.063007	
6505.893609	-0.179111	
6505.895183	-0.050837	
6505.896843	-0.158337	
6505.898410	-0.102097	
6505.900099	-0.138405	
6505.901649	-0.117747	
6505.903368	-0.154260	
6505.904889	-0.129994	
6505.906636	-0.156979	
6505.908116	-0.187329	
6505.909876	-0.174257	
6505.911355	-0.215015	
6505.913139	-0.168859	
6505.914623	-0.234931	
6505.916419	-0.183473	
6505.917902	-0.240788	
6505.919677	-0.195115	
6505.921159	-0.295618	
6505.922905	-0.206447	
6505.924410	-0.335156	
6505.926153	-0.208856	
6505.927674	-0.344018	
6505.929402	-0.215462	
6505.930928	-0.377107	
6505.932630	-0.216695	
6505.934166	-0.359741	
6505.935867	-0.246315	
6505.937423	-0.440940	
6505.939111	-0.301479	
6505.940693	-0.461992	
6505.942344	-0.300259	
6505.943932	-0.493634	
6505.945587	-0.303014	
6505.947174	-0.523987	
6505.948813	-0.333266	
6505.950446	-0.531069	
6505.952046	-0.377723	
6505.953701	-0.585016	
6505.955277	-0.437379	
6505.956966	-0.569338	
6505.958551	-0.480135	
6505.960232	-0.612143	
6505.961812	-0.514714	
6505.963488	-0.627894	
6505.965041	-0.562261	
6505.966737	-0.679855	
6505.968264	-0.592662	
6505.969997	-0.648744	
6505.971505	-0.621706	
6505.973256	-0.632406	
6505.974740	-0.697773	
6505.976522	-0.677744	
6505.978015	-0.707820	
6505.979789	-0.686212	
6505.981269	-0.783919	
6505.983055	-0.699542	
6505.984531	-0.793941	
6505.986286	-0.758770	
6505.987779	-0.860735	
6505.989529	-0.769518	
6505.991047	-0.845955	
6505.992785	-0.764704	
6505.994298	-0.886746	
6505.996001	-0.749259	
6505.997540	-0.938272	
6505.999235	-0.779476	
6506.000785	-0.940556	
6506.002478	-0.802163	
6506.004056	-1.003261	
6506.005724	-0.803045	
6506.007322	-1.018053	
6506.008983	-0.855430	
6506.010570	-1.077273	
6506.012213	-0.866165	
6506.013816	-1.057087	
6506.015459	-0.893920	
6506.017090	-1.078828	
6506.018692	-0.917659	
6506.020349	-1.093032	
6506.021935	-0.970595	
6506.023608	-1.099095	
6506.025213	-1.012659	
6506.026874	-1.130983	
6506.028439	-1.046602	
6506.030147	-1.102712	
6506.031697	-1.080713	
6506.033409	-1.156583	
6506.034954	-1.122862	
6506.036674	-1.170053	
6506.038202	-1.176136	
6506.039937	-1.208234	
6506.041430	-1.231969	
6506.043217	-1.257194	
6506.044697	-1.271587	
6506.046478	-1.207795	
6506.047958	-1.288575	
6506.049728	-1.275132	
6506.051206	-1.361415	
6506.052948	-1.288103	
6506.054442	-1.420401	
6506.056196	-1.331549	
6506.057709	-1.451246	
6506.059451	-1.360827	
6506.060965	-1.501669	
6506.062684	-1.387071	
6506.064222	-1.507639	
6506.065932	-1.436736	
6506.067472	-1.508980	
6506.069189	-1.482534	
6506.070745	-1.509262	
6506.072426	-1.508739	
6506.073999	-1.509367	
6506.075656	-1.509302	
6506.077236	-1.509435	
6506.078881	-1.509315	
6506.080486	-1.509443	
6506.082104	-1.509359	
6506.083739	-1.509387	
6506.085353	-1.509351	
6506.087020	-1.509460	
6506.088616	-1.509423	
6506.090264	-1.509556	
6506.091859	-1.509431	
6506.093542	-1.509435	
6506.095102	-1.509415	
6506.096810	-1.509492	
6506.098358	-1.509439	
6506.100058	-1.509488	
6506.101620	-1.509488	
6506.103304	-1.509492	
6506.104822	-1.509552	
6506.106572	-1.509520	
6506.108060	-1.509516	
6506.109843	-1.509452	
6506.111319	-1.509427	
6506.113107	-1.509500	
6506.114586	-1.509476	
6506.116356	-1.509411	
6506.117838	-1.509524	
6506.119570	-1.509484	
6506.121079	-1.509516	
6506.122836	-1.509367	
6506.124352	-1.509431	
6506.126098	-1.509472	
6506.127611	-1.509584	
6506.129324	-1.509435	
6506.130856	-1.509536	
6506.132564	-1.509480	
6506.134116	-1.509596	
6506.135816	-1.509452	
6506.137376	-1.509532	
6506.139056	-1.509427	
6506.140622	-1.509596	
6506.142282	-1.509464	
6506.143847	-1.509576	
6506.145486	-1.509411	
6506.147111	-1.509601	
6506.148719	-1.509423	
6506.150380	-1.509584	
6506.151971	-1.509319	
6506.153624	-1.509576	
6506.155215	-1.509439	
6506.156884	-1.509609	
6506.158451	-1.509444	
6506.160139	-1.509556	
6506.161688	-1.509520	
6506.163407	-1.509484	
6506.164943	-1.509516	
6506.166657	-1.509613	
6506.168144	-1.509560	
6506.169686	-1.509605	
6506.171222	-1.509580	
6506.172701	-1.509532	
6506.174273	-1.509593	
6506.175791	-1.509564	
6506.177385	-1.509572	
6506.178882	-1.509601	
6506.180510	-1.509536	
6506.182032	-1.509572	
6506.183662	-1.509633	
6506.185138	-1.509524	
6506.186718	-1.509568	
6506.188204	-1.509560	
6506.189822	-1.509472	
6506.191311	-1.509613	
6506.192842	-1.509621	
6506.194377	-1.509576	
6506.195936	-1.509456	
6506.197497	-1.509649	
6506.198987	-1.509516	
6506.200649	-1.509617	
6506.202129	-1.509512	
6506.203768	-1.509584	
6506.205294	-1.509560	
6506.206935	-1.509613	
6506.208412	-1.509548	
6506.210059	-1.509544	
6506.211536	-1.509524	
6506.213178	-1.509500	
6506.214668	-1.509580	
6506.216288	-1.509548	
6506.217805	-1.509540	
6506.219384	-1.509480	
6506.220923	-1.509544	
6506.222464	-1.509593	
6506.224071	-1.509609	
6506.225561	-1.509460	
6506.227190	-1.509520	
6506.228710	-1.509488	
6506.230338	-1.509605	
6506.231826	-1.509568	
6506.233457	-1.509556	
6506.234942	-1.509536	
6506.236560	-1.509625	
6506.238054	-1.509568	
6506.239693	-1.509580	
6506.241180	-1.509605	
6506.242775	-1.509544	
6506.244294	-1.509596	
6506.245832	-1.509560	
6506.247426	-1.509540	
6506.248918	-1.509460	
6506.250564	-1.509568	
6506.252063	-1.509516	
6506.253737	-1.509617	
6506.255222	-1.509500	
6506.256945	-1.509560	
6506.258418	-1.509488	
6506.260143	-1.509524	
6506.261614	-1.509492	
6506.263322	-1.509568	
6506.264797	-1.509609	
6506.266502	-1.509556	
6506.267988	-1.509504	
6506.269706	-1.509435	
6506.271197	-1.509625	
6506.272873	-1.509605	
6506.274376	-1.509504	
6506.276034	-1.509472	
6506.277565	-1.509552	
6506.279200	-1.509407	
6506.280750	-1.509625	
6506.282344	-1.509419	
6506.283954	-1.509540	
6506.285510	-1.509524	
6506.287114	-1.509540	
6506.288627	-1.509508	
6506.290333	-1.509596	
6506.291811	-1.509431	
6506.293540	-1.509568	
6506.295012	-1.509492	
6506.296730	-1.509585	
6506.298205	-1.509488	
6506.299923	-1.509504	
6506.301417	-1.509443	
6506.303145	-1.509460	
6506.304628	-1.509452	
6506.306333	-1.509419	
6506.307814	-1.509528	
6506.309502	-1.509407	
6506.310998	-1.509532	
6506.312643	-1.509456	
6506.314177	-1.509540	
6506.315789	-1.509339	
6506.317369	-1.509468	
6506.318935	-1.509387	
6506.320552	-1.509488	
6506.322097	-1.509512	
6506.323726	-1.509447	
6506.325225	-1.509347	
6506.326922	-1.509395	
6506.328401	-1.508473	
6506.330117	-1.507977	
6506.331594	-1.505754	
6506.333320	-1.482039	
6506.334835	-1.441458	
6506.336578	-1.429735	
6506.338056	-1.400526	
6506.339816	-1.331412	
6506.341303	-1.319694	
6506.343063	-1.227530	
6506.344553	-1.241137	
6506.346331	-1.121762	
6506.347814	-1.153384	
6506.349603	-1.007462	
6506.351093	-1.047339	
6506.352846	-0.934139	
6506.354346	-0.954905	
6506.356056	-0.819380	
6506.357578	-0.901574	
6506.359308	-0.704613	
6506.360852	-0.778565	
6506.362551	-0.571731	
6506.364096	-0.725520	
6506.365782	-0.453963	
6506.367331	-0.585576	
6506.368985	-0.335031	
6506.370569	-0.483144	
6506.372227	-0.266501	
6506.373830	-0.355152	
6506.375462	-0.159968	
6506.377090	-0.293112	
6506.378713	-0.043502	
6506.380337	-0.167421	
6506.381937	0.042096	
6506.383599	-0.007057	
6506.385185	0.147888	
6506.386858	0.095919	
6506.388424	0.229542	
6506.390125	0.200977	
6506.391664	0.321464	
6506.393368	0.312715	
6506.394919	0.430245	
6506.396624	0.469143	
6506.398159	0.538824	
6506.399898	0.581206	
6506.401373	0.633861	
6506.403144	0.680879	
6506.404623	0.709794	
6506.406406	0.810116	
6506.407890	0.797289	
6506.409638	0.924266	
6506.411118	0.888128	
6506.412889	1.063098	
6506.414393	1.008406	
6506.416166	1.147483	
6506.417665	1.121154	
6506.419406	1.255503	
6506.420925	1.202893	
6506.422643	1.388929	
6506.424179	1.259922	
6506.425865	1.478277	
6506.427425	1.338494	
6506.429092	1.600029	
6506.430657	1.432354	
6506.432328	1.696556	
6506.433909	1.605588	
6506.435556	1.735078	
6506.437156	1.647076	
6506.438781	1.733379	
6506.440406	1.733717	
6506.442028	1.739832	
6506.443685	1.743316	
6506.445292	1.743917	
6506.446939	1.743518	
6506.448554	1.744021	
6506.450240	1.743534	
6506.451813	1.744025	
6506.453516	1.743804	
6506.455074	1.743917	
6506.456759	1.743828	
6506.458319	1.743997	
6506.460001	1.743812	
6506.461540	1.743949	
6506.463272	1.743917	
6506.464787	1.743957	
6506.466539	1.743808	
6506.468016	1.744017	
6506.469801	1.743957	
6506.471286	1.743993	
6506.473051	1.743989	
6506.474530	1.743888	
6506.476296	1.743610	
6506.477780	1.743896	
6506.479562	1.744038	
6506.481065	1.743904	
6506.482805	1.744001	
6506.484322	1.744001	
6506.486039	1.744062	
6506.487561	1.743933	
6506.489255	1.744078	
6506.490796	1.743929	
6506.492490	1.744199	
6506.494054	1.743768	
6506.495741	1.744134	
6506.497314	1.743921	
6506.498987	1.743989	
6506.500561	1.743872	
6506.502238	1.744086	
6506.503834	1.743864	
6506.505450	1.744154	
6506.507057	1.743888	
6506.508702	1.744138	
6506.510328	1.743856	
6506.511936	1.744203	
6506.513600	1.743949	
6506.515188	1.744009	
6506.516866	1.743949	
6506.518425	1.744053	
6506.520137	1.743876	
6506.521694	1.744227	
6506.523402	1.743881	
6506.524949	1.744042	
6506.526625	1.744033	
6506.528161	1.744021	
6506.529902	1.743965	
6506.531386	1.744058	
6506.533165	1.744021	
6506.534647	1.743969	
6506.536435	1.743949	
6506.537920	1.744013	
6506.539678	1.743905	
6506.541162	1.744017	
6506.542950	1.744013	
6506.544429	1.743909	
6506.546191	1.744094	
6506.547691	1.743876	
6506.549412	1.744034	
6506.550926	1.743961	
6506.552633	1.743900	
6506.554167	1.743941	
6506.555880	1.744005	
6506.557436	1.743900	
6506.559120	1.744174	
6506.560687	1.743941	
6506.562366	1.744243	
6506.563947	1.743828	
6506.565626	1.744166	
6506.567218	1.743901	
6506.568860	1.744062	
6506.570471	1.743808	
6506.572106	1.744122	
6506.573719	1.743836	
6506.575333	1.744034	
6506.576971	1.743828	
6506.578581	1.744138	
6506.580254	1.743945	
6506.581830	1.744070	
6506.583516	1.743836	
6506.585095	1.744130	
6506.586794	1.743864	
6506.588367	1.743973	
6506.590038	1.743840	
6506.591585	1.744146	
6506.593304	1.743876	
6506.594827	1.744005	
6506.596549	1.744029	
6506.598030	1.744062	
6506.599791	1.743864	
6506.601269	1.743977	
6506.603058	1.743977	
6506.604534	1.743929	
6506.606322	1.743977	
6506.607812	1.743937	
6506.609574	1.744029	
6506.611067	1.743868	
6506.612822	1.743945	
6506.614329	1.743828	
6506.616068	1.744098	
6506.617590	1.743872	
6506.619321	1.743969	
6506.620852	1.743905	
6506.622569	1.743933	
6506.624115	1.743921	
6506.625814	1.744045	
6506.627361	1.743800	
6506.629020	1.744062	
6506.630600	1.743776	
6506.632264	1.743844	
6506.633851	1.743687	
6506.635484	1.743824	
6506.637082	1.743699	
6506.638715	1.744013	
6506.640345	1.743671	
6506.641972	1.744041	
6506.643610	1.743747	
6506.645201	1.744066	
6506.646876	1.743896	
6506.648440	1.744114	
6506.650132	1.743780	
6506.651707	1.743989	
6506.653378	1.743767	
6506.654926	1.743977	
6506.656628	1.743836	
6506.658145	1.743957	
6506.659893	1.743812	
6506.661384	1.743913	
6506.663154	1.743796	
6506.664639	1.743901	
6506.666412	1.743888	
6506.667895	1.743743	
6506.669680	1.743502	
6506.671170	1.743735	
6506.672967	1.743345	
6506.674440	1.743631	
6506.676192	1.743159	
6506.677687	1.741326	
6506.679429	1.742491	
6506.680943	1.740903	
6506.682653	1.741693	
6506.684189	1.724113	
6506.685917	1.739904	
6506.687462	1.643273	
6506.689165	1.731542	
6506.690715	1.601350	
6506.692412	1.725922	
6506.693975	1.520345	
6506.695654	1.703041	
6506.697226	1.471808	
6506.698858	1.631039	
6506.700461	1.412289	
6506.702097	1.603884	
6506.703694	1.423605	
6506.705317	1.529247	
6506.706976	1.342547	
6506.708571	1.458490	
6506.710237	1.287504	
6506.711812	1.414948	
6506.713498	1.274617	
6506.715059	1.361061	
6506.716756	1.277679	
6506.718329	1.301120	
6506.720002	1.197958	
6506.721558	1.239768	
6506.723271	1.174812	
6506.724757	1.090334	
6506.726331	1.119080	
6506.727846	1.047557	
6506.729336	1.053587	
6506.730919	1.061737	
6506.732427	1.013131	
6506.734026	1.004281	
6506.735520	1.029305	
6506.737146	0.978379	
6506.738669	0.957709	
6506.740313	0.963127	
6506.741803	0.919444	
6506.743466	0.945870	
6506.744945	0.855305	
6506.746576	0.941378	
6506.748056	0.826169	
6506.749693	0.939747	
6506.751174	0.811272	
6506.752805	0.856607	
6506.754320	0.765345	
6506.755885	0.843873	
6506.757478	0.763697	
6506.758964	0.771061	
6506.760631	0.718520	
6506.762113	0.751725	
6506.763744	0.685459	
6506.765264	0.717206	
6506.766906	0.753385	
6506.768383	0.682076	
6506.770037	0.726858	
6506.771513	0.619705	
6506.773151	0.741751	
6506.774632	0.573722	
6506.776271	0.683042	
6506.777770	0.593505	
6506.779343	0.692332	
6506.780907	0.585182	
6506.782453	0.672863	
6506.784050	0.585271	
6506.785541	0.637329	
6506.787198	0.532033	
6506.788705	0.585480	
6506.790365	0.594468	
6506.791862	0.539195	
6506.793484	0.517716	
6506.794970	0.504922	
6506.796610	0.555292	
6506.798105	0.489397	
6506.799731	0.563309	
6506.801242	0.490952	
6506.802872	0.544202	
6506.804352	0.421488	
6506.805932	0.513933	
6506.807465	0.419538	
6506.808983	0.483693	
6506.810622	0.423445	
6506.812115	0.442157	
6506.813729	0.387110	
6506.815253	0.478786	
6506.816920	0.422462	
6506.818401	0.430217	
6506.820133	0.391613	
6506.821604	0.383005	
6506.823314	0.391376	
6506.824791	0.350686	
6506.826512	0.389547	
6506.827994	0.305331	
6506.829698	0.400335	
6506.831186	0.289911	
6506.832885	0.402413	
6506.834397	0.259078	
6506.836069	0.374243	
6506.837587	0.230291	
6506.839232	0.316099	
6506.840772	0.188171	
6506.842392	0.296332	
6506.843966	0.165999	
6506.845538	0.319752	
6506.847163	0.177182	
6506.848701	0.247247	
6506.850342	0.194012	
6506.851842	0.242739	
6506.853547	0.170076	
6506.855021	0.217985	
6506.856764	0.168001	
6506.858243	0.126135	
6506.859951	0.146945	
6506.861433	0.083113	
6506.863129	0.179937	
6506.864627	0.077771	
6506.866334	0.157048	
6506.867823	0.019667	
6506.869514	0.164243	
6506.871006	-0.018159	
6506.872676	0.129092	
6506.874195	-0.003202	
6506.875833	0.116419	
6506.877397	-0.026566	
6506.878977	0.101047	
6506.880585	-0.029692	
6506.882146	0.084019	
6506.883753	-0.046591	
6506.885401	0.129531	
6506.887027	-0.087877	
6506.888664	0.076744	
6506.890296	-0.084280	
6506.891908	0.054093	
6506.893570	-0.084699	
6506.895150	0.057714	
6506.896830	-0.119399	
6506.898394	0.020468	
6506.900104	-0.084115	
6506.901682	-0.020198	
6506.903370	-0.075909	
6506.904919	-0.031541	
6506.906617	-0.061822	
6506.908152	-0.052533	
6506.909869	-0.103632	
6506.911359	-0.079793	
6506.913125	-0.082846	
6506.914606	-0.111737	
6506.916371	-0.076006	
6506.917844	-0.138429	
6506.919620	-0.104241	
6506.921107	-0.132556	
6506.922887	-0.093332	
6506.924378	-0.162023	
6506.926123	-0.095769	
6506.927625	-0.217384	
6506.929337	-0.066133	
6506.930861	-0.212631	
6506.932588	-0.087575	
6506.934130	-0.209005	
6506.935850	-0.110807	
6506.937407	-0.245647	
6506.939083	-0.109405	
6506.940638	-0.307590	
6506.942316	-0.116076	
6506.943894	-0.302434	
6506.945565	-0.114605	
6506.947165	-0.328920	
6506.948795	-0.128354	
6506.950412	-0.306386	
6506.952053	-0.143476	
6506.953662	-0.321319	
6506.955281	-0.187756	
6506.956914	-0.353404	
6506.958502	-0.218270	
6506.960179	-0.384934	
6506.961758	-0.259540	
6506.963435	-0.369574	
6506.964993	-0.288951	
6506.966692	-0.399275	
6506.968244	-0.308122	
6506.969940	-0.369513	
6506.971485	-0.313036	
6506.973219	-0.392676	
6506.974715	-0.413664	
6506.976481	-0.397095	
6506.977961	-0.419259	
6506.979735	-0.395395	
6506.981213	-0.444694	
6506.982967	-0.385534	
6506.984453	-0.474765	
6506.986222	-0.421894	
6506.987708	-0.527605	
6506.989488	-0.480022	
6506.990989	-0.574595	
6506.992725	-0.499822	
6506.994230	-0.621159	
6506.995947	-0.471200	
6506.997477	-0.660564	
6506.999174	-0.476445	
6507.000731	-0.657993	
6507.002418	-0.488385	
6507.003969	-0.719059	
6507.005637	-0.516765	
6507.007207	-0.739390	
6507.008861	-0.537599	
6507.010450	-0.708360	
6507.012091	-0.576642	
6507.013711	-0.776217	
6507.015333	-0.613589	
6507.016955	-0.768414	
6507.018562	-0.632966	
6507.020193	-0.827131	
6507.021798	-0.701717	
6507.023482	-0.798546	
6507.025055	-0.711610	
6507.026764	-0.824593	
6507.028327	-0.752756	
6507.030028	-0.821281	
6507.031578	-0.795819	
6507.033278	-0.870189	
6507.034832	-0.824637	
6507.036537	-0.883579	
6507.038043	-0.886178	
6507.039793	-0.879954	
6507.041274	-0.936169	
6507.043039	-0.934872	
6507.044517	-0.941748	
6507.046303	-0.923726	
6507.047785	-0.981939	
6507.049536	-0.951320	
6507.051036	-1.035923	
6507.052805	-0.969495	
6507.054303	-1.100384	
6507.056046	-0.983752	
6507.057558	-1.130544	
6507.059262	-0.997847	
6507.060784	-1.162243	
6507.062476	-1.006109	
6507.064021	-1.212528	
6507.065705	-1.043004	
6507.067280	-1.248485	
6507.068955	-1.072218	
6507.070522	-1.273517	
6507.072168	-1.119623	
6507.073760	-1.323516	
6507.075420	-1.148067	
6507.077043	-1.329962	
6507.078657	-1.165610	
6507.080299	-1.358430	
6507.081912	-1.231083	
6507.083551	-1.398165	
6507.085156	-1.261206	
6507.086817	-1.437453	
6507.088394	-1.348448	
6507.090082	-1.426710	
6507.091641	-1.383897	
6507.093347	-1.462767	
6507.094881	-1.435633	
6507.096597	-1.452829	
6507.098132	-1.471742	
6507.099861	-1.470631	
6507.101379	-1.492597	
6507.103145	-1.482043	
6507.104622	-1.507631	
6507.106405	-1.505125	
6507.107887	-1.509198	
6507.109652	-1.509343	
6507.111135	-1.509359	
6507.112917	-1.509286	
6507.114402	-1.509407	
6507.116184	-1.509206	
6507.117670	-1.509431	
6507.119439	-1.509460	
6507.120941	-1.509435	
6507.122682	-1.509399	
6507.124202	-1.509460	
6507.125916	-1.509444	
6507.127445	-1.509464	
6507.129151	-1.509427	
6507.130704	-1.509520	
6507.132386	-1.509319	
6507.133947	-1.509508	
6507.135623	-1.509448	
6507.137197	-1.509476	
6507.138850	-1.509407	
6507.140434	-1.509452	
6507.142058	-1.509335	
6507.143683	-1.509601	
6507.145277	-1.509363	
6507.146947	-1.509568	
6507.148545	-1.509343	
6507.150197	-1.509536	
6507.151801	-1.509444	
6507.153484	-1.509435	
6507.155064	-1.509468	
6507.156762	-1.509516	
6507.158316	-1.509415	
6507.160011	-1.509588	
6507.161567	-1.509468	
6507.163250	-1.509524	
6507.164806	-1.509520	
6507.166519	-1.509605	
6507.168025	-1.509427	
6507.169786	-1.509472	
6507.171265	-1.509556	
6507.173039	-1.509464	
6507.174518	-1.509544	
6507.176293	-1.509576	
6507.177776	-1.509444	
6507.179552	-1.509492	
6507.181049	-1.509528	
6507.182801	-1.509459	
6507.184294	-1.509572	
6507.186031	-1.509504	
6507.187544	-1.509520	
6507.189265	-1.509448	
6507.190798	-1.509588	
6507.192494	-1.509419	
6507.194044	-1.509556	
6507.195751	-1.509391	
6507.197308	-1.509621	
6507.198984	-1.509371	
6507.200561	-1.509572	
6507.202241	-1.509395	
6507.203835	-1.509536	
6507.205494	-1.509427	
6507.207103	-1.509588	
6507.208722	-1.509427	
6507.210351	-1.509645	
6507.211969	-1.509427	
6507.213600	-1.509613	
6507.215192	-1.509480	
6507.216839	-1.509516	
6507.218424	-1.509468	
6507.220107	-1.509572	
6507.221663	-1.509427	
6507.223368	-1.509564	
6507.224923	-1.509508	
6507.226623	-1.509584	
6507.228177	-1.509419	
6507.229879	-1.509524	
6507.231405	-1.509496	
6507.233163	-1.509556	
6507.234646	-1.509601	
6507.236421	-1.509484	
6507.237905	-1.509536	
6507.239677	-1.509508	
6507.241155	-1.509500	
6507.242946	-1.509472	
6507.244439	-1.509532	
6507.246241	-1.509464	
6507.247715	-1.509480	
6507.249470	-1.509524	
6507.250964	-1.509524	
6507.252712	-1.509359	
6507.254227	-1.509568	
6507.255953	-1.509524	
6507.257490	-1.509548	
6507.259216	-1.509391	
6507.260756	-1.509584	
6507.262465	-1.509476	
6507.264018	-1.509593	
6507.265700	-1.509435	
6507.267311	-1.509576	
6507.268799	-1.509552	
6507.270356	-1.509596	
6507.271872	-1.509536	
6507.273454	-1.509552	
6507.274934	-1.509625	
6507.276506	-1.509613	
6507.277996	-1.509528	
6507.279558	-1.509520	
6507.281075	-1.509641	
6507.282572	-1.509617	
6507.284136	-1.509500	
6507.285654	-1.509596	
6507.287251	-1.509572	
6507.288747	-1.509476	
6507.290379	-1.509669	
6507.291904	-1.509584	
6507.293539	-1.509516	
6507.295019	-1.509504	
6507.296673	-1.509564	
6507.298147	-1.509468	
6507.299797	-1.509552	
6507.301271	-1.509488	
6507.302920	-1.509548	
6507.304397	-1.509568	
6507.305977	-1.509508	
6507.307510	-1.509532	
6507.309054	-1.509520	
6507.310674	-1.509552	
6507.312150	-1.509609	
6507.313801	-1.509584	
6507.315294	-1.509476	
6507.316949	-1.509572	
6507.318436	-1.509564	
6507.320079	-1.509484	
6507.321552	-1.509492	
6507.323196	-1.509464	
6507.324676	-1.509560	
6507.326325	-1.509576	
6507.327818	-1.509508	
6507.329423	-1.509480	
6507.330948	-1.509588	
6507.332512	-1.509443	
6507.334061	-1.509544	
6507.335559	-1.509520	
6507.337216	-1.509568	
6507.338700	-1.509480	
6507.340345	-1.509572	
6507.341868	-1.509500	
6507.343488	-1.509560	
6507.344966	-1.509468	
6507.346607	-1.509443	
6507.348091	-1.509524	
6507.349723	-1.509504	
6507.351224	-1.509468	
6507.352840	-1.509488	
6507.354355	-1.509411	
6507.355933	-1.509528	
6507.357454	-1.509524	
6507.358986	-1.509423	
6507.360602	-1.509411	
6507.362199	-1.509214	
6507.363807	-1.509315	
6507.365372	-1.505749	
6507.367003	-1.506821	
6507.368506	-1.471404	
6507.370192	-1.493161	
6507.371667	-1.436402	
6507.373402	-1.429671	
6507.374876	-1.375711	
6507.376580	-1.291894	
6507.378055	-1.353072	
6507.379756	-1.195690	
6507.381241	-1.222982	
6507.382951	-1.069067	
6507.384444	-1.157211	
6507.386138	-0.983828	
6507.387638	-1.061071	
6507.389303	-0.882182	
6507.390819	-0.960794	
6507.392458	-0.807879	
6507.394001	-0.869069	
6507.395607	-0.697664	
6507.397204	-0.752873	
6507.398768	-0.617823	
6507.400381	-0.661760	
6507.401916	-0.536387	
6507.403591	-0.582563	
6507.405067	-0.462576	
6507.406780	-0.451743	
6507.408254	-0.383093	
6507.409954	-0.329649	
6507.411430	-0.299421	
6507.413146	-0.186136	
6507.414634	-0.220200	
6507.416345	-0.089142	
6507.417828	-0.103673	
6507.419513	0.035518	
6507.420997	-0.075156	
6507.422677	0.132846	
6507.424183	0.018096	
6507.425848	0.236463	
6507.427395	0.145930	
6507.429022	0.317738	
6507.430596	0.277789	
6507.432173	0.429484	
6507.433787	0.361925	
6507.435411	0.578930	
6507.437014	0.411135	
6507.438654	0.681600	
6507.440271	0.577706	
6507.441900	0.751286	
6507.443559	0.658192	
6507.445139	0.873832	
6507.446816	0.791223	
6507.448397	0.938514	
6507.450083	0.910779	
6507.451656	1.063058	
6507.453316	1.027722	
6507.454869	1.132172	
6507.456563	1.119704	
6507.458100	1.197523	
6507.459817	1.213181	
6507.461302	1.256047	
6507.463076	1.347804	
6507.464555	1.342454	
6507.466326	1.434711	
6507.467813	1.441108	
6507.469589	1.539177	
6507.471076	1.494414	
6507.472857	1.623784	
6507.474338	1.575948	
6507.476097	1.707553	
6507.477593	1.653497	
6507.479340	1.740674	
6507.480856	1.714675	
6507.482576	1.743925	
6507.484103	1.743244	
6507.485813	1.743784	
6507.487354	1.743461	
6507.489067	1.743937	
6507.490627	1.743663	
6507.492314	1.743844	
6507.493888	1.743631	
6507.495569	1.744033	
6507.497154	1.743695	
6507.498794	1.744033	
6507.500400	1.743832	
6507.502048	1.743953	
6507.503656	1.743844	
6507.505281	1.744066	
6507.506914	1.743719	
6507.508525	1.744106	
6507.510180	1.743856	
6507.511751	1.744078	
6507.513432	1.743884	
6507.514992	1.743997	
6507.516672	1.743872	
6507.518245	1.744110	
6507.519931	1.743876	
6507.521487	1.743965	
6507.523192	1.743804	
6507.524710	1.743941	
6507.526472	1.743840	
6507.527960	1.743945	
6507.529735	1.743913	
6507.531210	1.744005	
6507.532986	1.743949	
6507.534463	1.743921	
6507.536258	1.744050	
6507.537739	1.744025	
6507.539515	1.743937	
6507.540993	1.743884	
6507.542754	1.744021	
6507.544254	1.743901	
6507.545984	1.744102	
6507.547505	1.743888	
6507.549238	1.744082	
6507.550776	1.743852	
6507.552489	1.744130	
6507.554035	1.743900	
6507.555730	1.743985	
6507.557282	1.743929	
6507.558963	1.744098	
6507.560536	1.743880	
6507.562210	1.744062	
6507.563807	1.743788	
6507.565474	1.744033	
6507.567065	1.743913	
6507.568705	1.744058	
6507.570304	1.743892	
6507.571926	1.744041	
6507.573572	1.743933	
6507.575149	1.744102	
6507.576817	1.743953	
6507.578393	1.744045	
6507.580075	1.743885	
6507.581659	1.744050	
6507.583332	1.743969	
6507.584889	1.744045	
6507.586569	1.744054	
6507.588104	1.744029	
6507.589839	1.743965	
6507.591343	1.744054	
6507.593091	1.743909	
6507.594568	1.744130	
6507.596341	1.744054	
6507.597820	1.744094	
6507.599592	1.743997	
6507.601080	1.744001	
6507.602867	1.744001	
6507.604348	1.743981	
6507.606114	1.744025	
6507.607608	1.744062	
6507.609340	1.744070	
6507.610850	1.743965	
6507.612560	1.744098	
6507.614084	1.744021	
6507.615788	1.744086	
6507.617336	1.743872	
6507.619028	1.744058	
6507.620582	1.743933	
6507.622269	1.744042	
6507.623838	1.743860	
6507.625516	1.744182	
6507.627101	1.743892	
6507.628739	1.744078	
6507.630352	1.743828	
6507.631988	1.744158	
6507.633596	1.743824	
6507.635213	1.744190	
6507.636845	1.743917	
6507.638444	1.744058	
6507.640117	1.743884	
6507.641685	1.744005	
6507.643370	1.743836	
6507.644920	1.744086	
6507.646622	1.744021	
6507.648172	1.743973	
6507.649878	1.743852	
6507.651435	1.744033	
6507.653156	1.743615	
6507.654661	1.743957	
6507.656419	1.743864	
6507.657897	1.743941	
6507.659688	1.743937	
6507.661173	1.744033	
6507.662959	1.743949	
6507.664447	1.743937	
6507.666229	1.743949	
6507.667706	1.743945	
6507.669472	1.743969	
6507.670963	1.743800	
6507.672704	1.743965	
6507.674213	1.743913	
6507.675946	1.743965	
6507.677470	1.743747	
6507.679193	1.743913	
6507.680743	1.743764	
6507.682460	1.744001	
6507.684003	1.743808	
6507.685700	1.743913	
6507.687248	1.743784	
6507.688913	1.744066	
6507.690496	1.743719	
6507.692156	1.744158	
6507.693760	1.743627	
6507.695412	1.744098	
6507.697010	1.743647	
6507.698651	1.744034	
6507.700252	1.743526	
6507.701883	1.744053	
6507.703554	1.743538	
6507.705132	1.744013	
6507.706799	1.743381	
6507.708379	1.744009	
6507.710054	1.743566	
6507.711623	1.743989	
6507.713315	1.743498	
6507.714881	1.743776	
6507.716591	1.743063	
6507.718132	1.743655	
6507.719869	1.740883	
6507.721411	1.742978	
6507.723146	1.735723	
6507.724642	1.711190	
6507.726394	1.732835	
6507.727870	1.678549	
6507.729656	1.728770	
6507.731137	1.670835	
6507.732919	1.710014	
6507.734402	1.633988	
6507.736187	1.661086	
6507.737668	1.551443	
6507.739438	1.617576	
6507.740933	1.501101	
6507.742691	1.560080	
6507.744208	1.449720	
6507.745944	1.547907	
6507.747461	1.410271	
6507.749187	1.479473	
6507.750725	1.334003	
6507.752436	1.478672	
6507.753983	1.294566	
6507.755677	1.457648	
6507.757258	1.236747	
6507.758942	1.408305	
6507.760506	1.226737	
6507.762180	1.382806	
6507.763756	1.165220	
6507.765388	1.335509	
6507.766973	1.181909	
6507.768579	1.299118	
6507.770220	1.096328	
6507.771803	1.231558	
6507.773475	1.074080	
6507.775074	1.162815	
6507.776740	1.054043	
6507.778326	1.135701	
6507.779997	1.040967	
6507.781560	1.085363	
6507.783263	1.000208	
6507.784801	1.018666	
6507.786498	0.971188	
6507.788012	0.982528	
6507.789745	0.972948	
6507.791223	0.927239	
6507.792994	0.924270	
6507.794484	0.868538	
6507.796267	0.934277	
6507.797744	0.841210	
6507.799528	0.900656	
6507.801004	0.805689	
6507.802768	0.845722	
6507.804264	0.742605	
6507.805996	0.852413	
6507.807505	0.724357	
6507.809231	0.825480	
6507.810756	0.672524	
6507.812474	0.829544	
6507.814008	0.667127	
6507.815528	0.648922	
6507.817122	0.673246	
6507.818623	0.592792	
6507.820191	0.626102	
6507.821692	0.579494	
6507.823251	0.657394	
6507.824753	0.538140	
6507.826304	0.556376	
6507.827817	0.550345	
6507.829450	0.618702	
6507.830975	0.524367	
6507.832470	0.524959	
6507.834038	0.550067	
6507.835555	0.556972	
6507.837193	0.488595	
6507.838687	0.511371	
6507.840329	0.491806	
6507.841858	0.462153	
6507.843501	0.441186	
6507.844982	0.430447	
6507.846646	0.464699	
6507.848118	0.408311	
6507.849767	0.484462	
6507.851244	0.372358	
6507.852881	0.455269	
6507.854358	0.361462	
6507.855963	0.400943	
6507.857498	0.368298	
6507.859048	0.390671	
6507.860654	0.311917	
6507.862134	0.392749	
6507.863793	0.347729	
6507.865280	0.322206	
6507.866917	0.342130	
6507.868437	0.267876	
6507.870079	0.336357	
6507.871551	0.258751	
6507.873192	0.301355	
6507.874666	0.223069	
6507.876304	0.282055	
6507.877786	0.230537	
6507.879403	0.286257	
6507.880924	0.172948	
6507.882476	0.262389	
6507.884037	0.189694	
6507.885545	0.231629	
6507.887181	0.167188	
6507.888672	0.163683	
6507.890295	0.161214	
6507.891812	0.111855	
6507.893455	0.148545	
6507.894935	0.090497	
6507.896589	0.195430	
6507.898063	0.080023	
6507.899713	0.185013	
6507.901203	0.054254	
6507.902824	0.136009	
6507.904326	0.057641	
6507.905916	0.122292	
6507.907442	-0.006348	
6507.909071	0.135368	
6507.910624	0.034958	
6507.912235	0.143147	
6507.913808	0.036525	
6507.915379	0.112761	
6507.916998	0.004452	
6507.918538	0.079793	
6507.920202	-0.005929	
6507.921678	0.001189	
6507.923400	-0.009112	
6507.924869	0.010043	
6507.926591	-0.002215	
6507.928064	-0.070757	
6507.929760	-0.016773	
6507.931245	-0.104128	
6507.932935	-0.004439	
6507.934425	-0.136531	
6507.936148	0.008355	
6507.937652	-0.119899	
6507.939341	-0.032448	
6507.940848	-0.210338	
6507.942503	-0.054507	
6507.944040	-0.181802	
6507.945666	-0.066487	
6507.947234	-0.169088	
